TP9,AF7,AF8,TP10,AUX,Timestamp
-127.44140625,-75.1953125,-17.578125,-73.73046875,0.0,1722223974.428532
-53.22265625,-70.80078125,-24.4140625,-47.36328125,0.0,1722223974.4319797
44.921875,-65.4296875,-42.96875,-24.4140625,0.0,1722223974.4354277
7.32421875,-63.96484375,-48.33984375,-37.59765625,0.0,1722223974.4388754
-63.96484375,-66.40625,-41.015625,-27.83203125,0.0,1722223974.4423232
-23.92578125,-64.453125,-56.640625,-1.46484375,0.0,1722223974.4457712
58.59375,-73.2421875,-71.2890625,6.34765625,0.0,1722223974.449219
44.921875,-77.1484375,-60.546875,2.9296875,0.0,1722223974.4526668
-36.62109375,-67.87109375,-61.5234375,-12.6953125,0.0,1722223974.4561148
-40.52734375,-70.80078125,-78.61328125,-14.6484375,0.0,1722223974.4595625
47.8515625,-74.70703125,-87.890625,5.37109375,0.0,1722223974.4630103
68.84765625,-72.265625,-89.35546875,4.39453125,0.0,1722223974.4664583
-18.06640625,-62.98828125,-78.61328125,-9.27734375,0.0,1722223974.4666371
-43.45703125,-60.05859375,-67.87109375,-3.41796875,0.0,1722223974.4700303
34.1796875,-64.94140625,-73.73046875,20.01953125,0.0,1722223974.4734237
91.796875,-62.01171875,-88.8671875,30.76171875,0.0,1722223974.4768171
10.25390625,-64.94140625,-92.7734375,8.7890625,0.0,1722223974.4802105
-50.29296875,-64.453125,-83.0078125,-1.953125,0.0,1722223974.483604
15.13671875,-59.08203125,-74.70703125,20.99609375,0.0,1722223974.4869974
87.40234375,-62.98828125,-77.63671875,40.0390625,0.0,1722223974.4903905
41.015625,-64.94140625,-84.9609375,23.4375,0.0,1722223974.493784
-43.45703125,-60.546875,-82.03125,0.9765625,0.0,1722223974.4971774
-18.5546875,-58.59375,-72.75390625,24.4140625,0.0,1722223974.5005708
68.84765625,-54.6875,-73.73046875,42.96875,0.0,1722223974.5039642
46.875,-57.12890625,-86.42578125,9.27734375,0.0,1722223974.50546
-41.9921875,-52.734375,-72.265625,-14.16015625,0.0,1722223974.5088272
-44.921875,-47.36328125,-65.91796875,-1.953125,0.0,1722223974.5121942
18.06640625,-52.24609375,-84.47265625,2.44140625,0.0,1722223974.515561
51.26953125,-55.17578125,-87.40234375,-0.48828125,0.0,1722223974.5189283
-21.484375,-55.6640625,-81.0546875,-10.7421875,0.0,1722223974.5222952
-75.68359375,-53.7109375,-76.171875,-18.5546875,0.0,1722223974.5256622
-15.13671875,-52.24609375,-74.70703125,-3.41796875,0.0,1722223974.5290291
53.7109375,-52.24609375,-91.30859375,5.859375,0.0,1722223974.5323963
-3.41796875,-45.41015625,-91.30859375,-6.8359375,0.0,1722223974.5357633
-79.1015625,-44.43359375,-83.984375,-26.85546875,0.0,1722223974.5391302
-39.55078125,-53.7109375,-83.49609375,-18.06640625,0.0,1722223974.5424974
46.875,-46.875,-70.3125,8.30078125,0.0,1722223974.5469344
21.484375,-42.96875,-78.125,0.0,0.0,1722223974.5503142
-69.82421875,-46.875,-70.80078125,-25.390625,0.0,1722223974.553694
-65.4296875,-47.8515625,-72.75390625,-21.484375,0.0,1722223974.5570736
24.4140625,-55.17578125,-86.9140625,2.9296875,0.0,1722223974.5604534
47.36328125,-54.6875,-72.75390625,5.859375,0.0,1722223974.5638332
-42.96875,-57.6171875,-62.98828125,-18.06640625,0.0,1722223974.567213
-83.49609375,-58.10546875,-78.61328125,-30.76171875,0.0,1722223974.5705926
-4.39453125,-49.8046875,-89.35546875,-8.7890625,0.0,1722223974.5739725
44.43359375,-49.31640625,-76.66015625,2.44140625,0.0,1722223974.5773523
-42.96875,-50.29296875,-72.265625,-36.1328125,0.0,1722223974.580732
-96.19140625,-53.22265625,-76.66015625,-49.31640625,0.0,1722223974.5841117
-31.73828125,-51.26953125,-80.56640625,-26.85546875,0.0,1722223974.5872366
41.9921875,-50.78125,-74.21875,-19.04296875,0.0,1722223974.5906136
-12.6953125,-41.015625,-73.73046875,-40.52734375,0.0,1722223974.5939908
-101.07421875,-37.109375,-88.8671875,-63.96484375,0.0,1722223974.597368
-58.59375,-40.0390625,-87.40234375,-41.9921875,0.0,1722223974.600745
36.1328125,-40.52734375,-71.77734375,-19.53125,0.0,1722223974.6041222
19.04296875,-43.45703125,-70.80078125,-27.83203125,0.0,1722223974.6074991
-69.82421875,-42.48046875,-66.40625,-34.1796875,0.0,1722223974.6108763
-71.2890625,-41.9921875,-71.2890625,-51.26953125,0.0,1722223974.6142533
14.16015625,-39.55078125,-70.80078125,-44.43359375,0.0,1722223974.6176305
24.4140625,-39.55078125,-62.01171875,-41.9921875,0.0,1722223974.6210077
-81.54296875,-39.0625,-64.94140625,-57.12890625,0.0,1722223974.6243846
-99.12109375,-38.0859375,-73.73046875,-53.7109375,0.0,1722223974.6300786
-15.13671875,-38.57421875,-66.40625,-43.9453125,0.0,1722223974.633477
26.85546875,-40.0390625,-67.87109375,-35.64453125,0.0,1722223974.6368756
-47.36328125,-39.55078125,-80.56640625,-47.36328125,0.0,1722223974.640274
-108.3984375,-43.9453125,-66.40625,-53.7109375,0.0,1722223974.6436727
-37.59765625,-43.9453125,-72.265625,-33.203125,0.0,1722223974.6470714
48.33984375,-41.015625,-89.35546875,-20.99609375,0.0,1722223974.6504698
-5.37109375,-48.828125,-78.61328125,-37.109375,0.0,1722223974.6538684
-87.40234375,-43.9453125,-62.5,-53.7109375,0.0,1722223974.6572669
-47.36328125,-38.57421875,-61.03515625,-39.0625,0.0,1722223974.6606655
29.78515625,-43.45703125,-65.4296875,-22.94921875,0.0,1722223974.664064
14.16015625,-52.24609375,-55.17578125,-30.76171875,0.0,1722223974.6674626
-74.70703125,-50.78125,-50.78125,-48.33984375,0.0,1722223974.6733046
-83.984375,-38.0859375,-52.734375,-45.8984375,0.0,1722223974.6767235
11.71875,-43.45703125,-64.453125,-26.3671875,0.0,1722223974.6801424
38.0859375,-45.8984375,-64.453125,-28.3203125,0.0,1722223974.6835613
-43.9453125,-38.57421875,-58.10546875,-41.9921875,0.0,1722223974.6869802
-61.5234375,-40.0390625,-57.6171875,-39.0625,0.0,1722223974.6903992
6.34765625,-45.41015625,-58.59375,-25.87890625,0.0,1722223974.693818
48.828125,-43.9453125,-57.6171875,-21.484375,0.0,1722223974.697237
-20.5078125,-36.1328125,-40.0390625,-32.2265625,0.0,1722223974.700656
-93.26171875,-45.8984375,-35.64453125,-46.875,0.0,1722223974.7040749
-42.48046875,-57.12890625,-43.9453125,-41.015625,0.0,1722223974.7074938
36.1328125,-49.31640625,-37.109375,-18.5546875,0.0,1722223974.7109127
-5.37109375,-43.9453125,-29.296875,-17.578125,0.0,1722223974.7168946
-92.28515625,-47.36328125,-39.0625,-45.8984375,0.0,1722223974.720333
-79.58984375,-49.8046875,-33.69140625,-47.36328125,0.0,1722223974.7237713
16.6015625,-47.8515625,-20.5078125,-14.6484375,0.0,1722223974.7272098
22.4609375,-44.43359375,-34.1796875,-18.5546875,0.0,1722223974.730648
-73.73046875,-39.55078125,-43.45703125,-43.45703125,0.0,1722223974.7340865
-92.28515625,-47.8515625,-33.69140625,-47.8515625,0.0,1722223974.7375247
-5.37109375,-50.78125,-26.85546875,-20.5078125,0.0,1722223974.740963
32.71484375,-44.921875,-28.3203125,-19.53125,0.0,1722223974.7444015
-58.10546875,-45.8984375,-28.3203125,-64.453125,0.0,1722223974.7478397
-95.703125,-43.9453125,-24.90234375,-69.82421875,0.0,1722223974.7512782
-21.97265625,-39.0625,-17.578125,-34.1796875,0.0,1722223974.7547164
38.57421875,-41.015625,-10.25390625,-16.6015625,0.0,1722223974.7606149
-20.01953125,-43.9453125,-9.765625,-43.9453125,0.0,1722223974.7640703
-97.65625,-35.64453125,-15.625,-57.12890625,0.0,1722223974.7675257
-66.89453125,-38.57421875,-23.4375,-41.015625,0.0,1722223974.770981
34.66796875,-45.41015625,-20.5078125,-12.20703125,0.0,1722223974.7744365
10.25390625,-45.41015625,-18.5546875,-22.94921875,0.0,1722223974.7778919
-96.6796875,-42.48046875,-22.4609375,-52.24609375,0.0,1722223974.7813473
-86.42578125,-38.0859375,-23.4375,-40.0390625,0.0,1722223974.7848027
8.7890625,-42.48046875,-25.87890625,-20.5078125,0.0,1722223974.788258
14.6484375,-51.7578125,-43.9453125,-39.0625,0.0,1722223974.7917137
-78.61328125,-49.8046875,-43.45703125,-62.01171875,0.0,1722223974.795169
-98.6328125,-46.38671875,-26.3671875,-62.98828125,0.0,1722223974.7986245
-18.06640625,-51.26953125,-42.48046875,-53.22265625,0.0,1722223974.8044703
26.3671875,-53.22265625,-50.29296875,-38.57421875,0.0,1722223974.807941
-51.26953125,-50.29296875,-34.1796875,-46.38671875,0.0,1722223974.8114119
-92.7734375,-47.36328125,-28.80859375,-56.640625,0.0,1722223974.8148825
-37.59765625,-52.24609375,-41.9921875,-47.8515625,0.0,1722223974.8183532
32.2265625,-53.7109375,-41.50390625,-32.2265625,0.0,1722223974.821824
-4.39453125,-49.31640625,-22.94921875,-43.9453125,0.0,1722223974.8252947
-83.49609375,-43.45703125,-27.34375,-58.59375,0.0,1722223974.8287654
-59.5703125,-47.8515625,-35.15625,-34.66796875,0.0,1722223974.8322363
7.8125,-58.59375,-26.85546875,-26.3671875,0.0,1722223974.835707
-7.8125,-42.96875,-23.4375,-40.0390625,0.0,1722223974.8391776
-87.890625,-29.296875,-31.73828125,-50.78125,0.0,1722223974.8426485
-82.03125,-35.15625,-43.9453125,-47.8515625,0.0,1722223974.8483922
-2.9296875,-41.015625,-45.8984375,-33.69140625,0.0,1722223974.8518765
12.20703125,-37.59765625,-31.73828125,-34.66796875,0.0,1722223974.8553607
-75.1953125,-41.9921875,-19.04296875,-55.6640625,0.0,1722223974.858845
-109.86328125,-45.8984375,-29.78515625,-72.265625,0.0,1722223974.8623292
-34.1796875,-43.9453125,-52.24609375,-54.19921875,0.0,1722223974.8658135
19.53125,-36.62109375,-41.015625,-29.296875,0.0,1722223974.8692977
-72.265625,-38.57421875,-39.0625,-63.4765625,0.0,1722223974.872782
-134.27734375,-51.26953125,-52.24609375,-93.75,0.0,1722223974.8762662
-51.7578125,-44.921875,-47.36328125,-61.5234375,0.0,1722223974.8797505
31.25,-51.26953125,-43.45703125,-25.390625,0.0,1722223974.8832347
2.44140625,-52.734375,-31.73828125,-18.06640625,0.0,1722223974.8867192
-99.609375,-43.9453125,-43.45703125,-66.40625,0.0,1722223974.892697
-88.8671875,-35.15625,-56.15234375,-80.56640625,0.0,1722223974.8961952
9.765625,-39.55078125,-53.7109375,-45.8984375,0.0,1722223974.8996933
0.9765625,-50.78125,-57.12890625,-50.78125,0.0,1722223974.9031913
-92.28515625,-47.36328125,-56.15234375,-82.03125,0.0,1722223974.9066896
-86.42578125,-40.0390625,-63.4765625,-64.94140625,0.0,1722223974.9101877
11.71875,-26.85546875,-60.05859375,-27.34375,0.0,1722223974.9136858
19.53125,-36.1328125,-62.01171875,-39.55078125,0.0,1722223974.9171839
-78.125,-47.8515625,-71.2890625,-63.4765625,0.0,1722223974.920682
-109.86328125,-43.45703125,-67.87109375,-68.359375,0.0,1722223974.92418
-27.83203125,-48.828125,-66.40625,-40.52734375,0.0,1722223974.9276783
26.3671875,-50.78125,-64.94140625,-37.109375,0.0,1722223974.9311764
-50.78125,-45.8984375,-59.08203125,-73.2421875,0.0,1722223974.937084
-115.234375,-42.96875,-61.03515625,-74.70703125,0.0,1722223974.9405947
-61.03515625,-50.29296875,-63.4765625,-45.8984375,0.0,1722223974.9441054
22.94921875,-46.875,-52.734375,-24.90234375,0.0,1722223974.947616
-15.13671875,-40.0390625,-35.15625,-44.43359375,0.0,1722223974.9511266
-119.62890625,-41.9921875,-25.87890625,-73.73046875,0.0,1722223974.9546373
-83.0078125,-48.828125,-34.66796875,-60.546875,0.0,1722223974.958148
19.53125,-52.24609375,-41.015625,-35.15625,0.0,1722223974.9616587
10.25390625,-45.41015625,-37.59765625,-38.0859375,0.0,1722223974.9651694
-72.265625,-43.9453125,-37.109375,-64.94140625,0.0,1722223974.96868
-84.47265625,-47.36328125,-34.1796875,-68.359375,0.0,1722223974.9721906
2.9296875,-39.55078125,-24.4140625,-40.52734375,0.0,1722223974.9757013
42.96875,-31.25,-14.16015625,-34.66796875,0.0,1722223974.983085
-41.015625,-36.62109375,-19.04296875,-58.59375,0.0,1722223974.9866145
-93.75,-41.015625,-34.66796875,-70.80078125,0.0,1722223974.9901443
-10.25390625,-38.0859375,-38.57421875,-40.0390625,0.0,1722223974.9936738
63.96484375,-40.52734375,-34.66796875,-18.06640625,0.0,1722223974.9972036
-10.25390625,-43.9453125,-25.87890625,-46.38671875,0.0,1722223975.0007331
-95.21484375,-51.7578125,-16.11328125,-68.84765625,0.0,1722223975.004263
-52.24609375,-54.19921875,-23.4375,-48.828125,0.0,1722223975.0077925
45.41015625,-40.52734375,-17.578125,-23.92578125,0.0,1722223975.0113223
17.578125,-31.25,-2.44140625,-30.76171875,0.0,1722223975.0148518
-87.890625,-37.109375,-9.27734375,-62.98828125,0.0,1722223975.0183814
-87.40234375,-39.0625,-17.578125,-60.05859375,0.0,1722223975.0219111
-7.8125,-38.57421875,-12.6953125,-34.66796875,0.0,1722223975.029172
-1.46484375,-41.9921875,-11.71875,-36.1328125,0.0,1722223975.032719
-91.796875,-44.921875,-25.87890625,-64.453125,0.0,1722223975.0362659
-99.609375,-44.43359375,-34.66796875,-64.94140625,0.0,1722223975.0398128
-1.46484375,-39.55078125,-33.203125,-35.64453125,0.0,1722223975.0433598
42.48046875,-39.0625,-18.06640625,-29.296875,0.0,1722223975.0469067
-56.15234375,-45.8984375,-18.5546875,-52.24609375,0.0,1722223975.0504537
-106.93359375,-43.9453125,-26.3671875,-66.40625,0.0,1722223975.0540006
-25.390625,-37.59765625,-17.08984375,-33.203125,0.0,1722223975.0575476
40.0390625,-47.8515625,-8.30078125,-15.625,0.0,1722223975.0610945
-21.97265625,-46.38671875,-18.5546875,-51.26953125,0.0,1722223975.0646412
-96.6796875,-37.109375,-23.92578125,-63.4765625,0.0,1722223975.0681882
-54.6875,-38.0859375,-12.20703125,-36.1328125,0.0,1722223975.0752232
32.71484375,-42.96875,-22.94921875,-17.08984375,0.0,1722223975.0787854
12.6953125,-43.9453125,-28.80859375,-33.69140625,0.0,1722223975.0823476
-90.33203125,-38.0859375,-19.53125,-57.12890625,0.0,1722223975.0859098
-81.54296875,-39.55078125,-19.53125,-46.38671875,0.0,1722223975.089472
21.484375,-38.0859375,-16.6015625,-12.6953125,0.0,1722223975.0930343
27.34375,-40.0390625,-14.6484375,-23.92578125,0.0,1722223975.0965965
-65.91796875,-37.109375,0.0,-41.015625,0.0,1722223975.1001587
-83.0078125,-31.73828125,8.30078125,-45.41015625,0.0,1722223975.103721
-13.671875,-39.55078125,-19.53125,-53.7109375,0.0,1722223975.107283
18.06640625,-44.43359375,-27.83203125,-47.36328125,0.0,1722223975.1108453
-49.31640625,-36.1328125,-12.6953125,-60.05859375,0.0,1722223975.1144075
-91.796875,-34.1796875,-19.04296875,-63.96484375,0.0,1722223975.1212478
-41.015625,-41.9921875,-25.390625,-44.43359375,0.0,1722223975.1248236
30.76171875,-41.015625,-14.6484375,-27.34375,0.0,1722223975.1283996
-21.97265625,-45.41015625,-20.01953125,-35.15625,0.0,1722223975.1319754
-105.95703125,-43.9453125,-29.78515625,-44.43359375,0.0,1722223975.1355512
-79.1015625,-48.828125,-19.04296875,-38.57421875,0.0,1722223975.1391273
5.859375,-53.7109375,-14.6484375,-26.85546875,0.0,1722223975.142703
4.39453125,-41.50390625,-13.671875,-28.3203125,0.0,1722223975.1462789
-88.37890625,-43.9453125,-14.16015625,-51.7578125,0.0,1722223975.149855
-83.0078125,-44.921875,-39.55078125,-46.38671875,0.0,1722223975.1534307
15.625,-44.43359375,-39.0625,-11.71875,0.0,1722223975.1570065
47.36328125,-42.48046875,-2.44140625,-10.25390625,0.0,1722223975.1605825
-48.828125,-43.45703125,-9.765625,-48.33984375,0.0,1722223975.1684606
-96.19140625,-52.734375,-29.296875,-66.89453125,0.0,1722223975.1720536
-18.5546875,-47.8515625,-20.5078125,-37.59765625,0.0,1722223975.1756465
46.38671875,-44.921875,-24.4140625,-13.671875,0.0,1722223975.1792395
-22.94921875,-46.38671875,-21.97265625,-37.59765625,0.0,1722223975.1828325
-109.86328125,-46.38671875,-16.6015625,-59.08203125,0.0,1722223975.1864254
-57.6171875,-48.828125,-18.5546875,-38.0859375,0.0,1722223975.1900184
26.85546875,-53.22265625,-18.5546875,-13.671875,0.0,1722223975.1936114
-30.76171875,-62.5,-29.296875,-41.015625,0.0,1722223975.1972044
-129.39453125,-66.89453125,-23.92578125,-80.56640625,0.0,1722223975.2007973
-96.6796875,-60.546875,-18.5546875,-57.6171875,0.0,1722223975.2043903
2.9296875,-57.12890625,-26.3671875,-20.5078125,0.0,1722223975.2079833
-6.34765625,-63.4765625,-28.3203125,-36.62109375,0.0,1722223975.2143407
-97.16796875,-63.4765625,-24.90234375,-61.5234375,0.0,1722223975.2179441
-104.00390625,-64.453125,-30.2734375,-51.7578125,0.0,1722223975.2215476
-21.484375,-65.91796875,-46.38671875,-27.34375,0.0,1722223975.225151
7.32421875,-57.12890625,-38.57421875,-24.90234375,0.0,1722223975.2287545
-79.58984375,-62.01171875,-24.4140625,-43.45703125,0.0,1722223975.232358
-111.81640625,-70.3125,-20.01953125,-33.203125,0.0,1722223975.2359612
-42.48046875,-63.4765625,-29.78515625,-23.92578125,0.0,1722223975.2395647
15.625,-57.12890625,-41.50390625,-32.71484375,0.0,1722223975.243168
-41.50390625,-58.59375,-25.390625,-47.36328125,0.0,1722223975.2467716
-110.83984375,-49.8046875,-12.6953125,-57.6171875,0.0,1722223975.250375
-68.359375,-57.12890625,-29.78515625,-44.921875,0.0,1722223975.2539785
7.32421875,-66.40625,-40.0390625,-31.25,0.0,1722223975.2601216
-18.06640625,-41.9921875,-35.64453125,-30.76171875,0.0,1722223975.2637343
-108.88671875,-37.109375,-46.38671875,-52.24609375,0.0,1722223975.2673469
-116.2109375,-49.8046875,-41.9921875,-60.05859375,0.0,1722223975.2709596
-22.4609375,-48.828125,-25.87890625,-37.59765625,0.0,1722223975.2745721
14.6484375,-50.29296875,-24.90234375,-28.3203125,0.0,1722223975.278185
-81.54296875,-48.828125,-20.5078125,-55.17578125,0.0,1722223975.2817974
-118.1640625,-57.6171875,-25.390625,-67.87109375,0.0,1722223975.2854102
-20.99609375,-65.91796875,-26.85546875,-40.0390625,0.0,1722223975.2890227
34.66796875,-59.5703125,-12.6953125,-28.3203125,0.0,1722223975.2926354
-59.5703125,-58.59375,-22.94921875,-43.45703125,0.0,1722223975.296248
-139.6484375,-70.3125,-39.0625,-66.40625,0.0,1722223975.2998607
-79.58984375,-69.3359375,-43.45703125,-55.6640625,0.0,1722223975.3057241
11.23046875,-51.7578125,-34.66796875,-20.99609375,0.0,1722223975.3093445
-38.0859375,-43.9453125,-38.0859375,-38.57421875,0.0,1722223975.312965
-115.234375,-46.875,-54.19921875,-59.5703125,0.0,1722223975.3165853
-71.2890625,-44.43359375,-41.50390625,-33.69140625,0.0,1722223975.320206
16.11328125,-37.59765625,-25.87890625,-18.5546875,0.0,1722223975.3238263
-2.9296875,-38.57421875,-26.3671875,-35.15625,0.0,1722223975.3274467
-91.30859375,-44.43359375,-34.1796875,-63.4765625,0.0,1722223975.331067
-79.1015625,-43.45703125,-39.0625,-58.10546875,0.0,1722223975.3346877
15.625,-38.0859375,-38.57421875,-25.87890625,0.0,1722223975.338308
33.203125,-36.62109375,-40.0390625,-30.2734375,0.0,1722223975.3419285
-66.89453125,-39.0625,-53.7109375,-62.01171875,0.0,1722223975.3455489
-103.515625,-33.203125,-57.6171875,-63.96484375,0.0,1722223975.3524213
-24.90234375,-33.69140625,-41.015625,-38.0859375,0.0,1722223975.3560526
20.01953125,-34.66796875,-41.50390625,-33.203125,0.0,1722223975.359684
-57.12890625,-35.15625,-36.1328125,-65.91796875,0.0,1722223975.3633153
-101.5625,-35.15625,-20.99609375,-73.2421875,0.0,1722223975.3669465
-50.29296875,-36.62109375,-31.25,-48.828125,0.0,1722223975.3705778
18.06640625,-47.8515625,-42.48046875,-45.41015625,0.0,1722223975.3742092
-23.92578125,-50.29296875,-42.48046875,-61.5234375,0.0,1722223975.3778405
-106.4453125,-45.8984375,-44.921875,-77.63671875,0.0,1722223975.3814716
-65.91796875,-48.828125,-59.5703125,-49.8046875,0.0,1722223975.385103
36.62109375,-57.6171875,-66.89453125,-10.7421875,0.0,1722223975.3887343
10.25390625,-50.29296875,-56.15234375,-41.9921875,0.0,1722223975.3923655
-96.19140625,-36.62109375,-44.921875,-77.1484375,0.0,1722223975.3990216
-78.61328125,-38.57421875,-42.48046875,-56.15234375,0.0,1722223975.4026628
-3.41796875,-47.36328125,-56.15234375,-44.921875,0.0,1722223975.4063036
33.69140625,-45.41015625,-62.5,-20.99609375,0.0,1722223975.4099445
-25.390625,-39.0625,-56.640625,-20.01953125,0.0,1722223975.4135857
-67.87109375,-35.64453125,-59.08203125,-28.3203125,0.0,1722223975.4172266
-17.08984375,-37.59765625,-64.94140625,-17.08984375,0.0,1722223975.4208677
39.55078125,-42.96875,-66.40625,-20.01953125,0.0,1722223975.4245086
-17.08984375,-38.0859375,-58.59375,-25.87890625,0.0,1722223975.4281495
-83.49609375,-35.64453125,-54.6875,-36.62109375,0.0,1722223975.4317906
-49.8046875,-48.33984375,-64.94140625,-41.015625,0.0,1722223975.4354315
34.1796875,-46.875,-72.75390625,-17.578125,0.0,1722223975.4390726
0.48828125,-37.109375,-78.125,-27.83203125,0.0,1722223975.4455297
-105.95703125,-50.29296875,-72.265625,-67.3828125,0.0,1722223975.4491794
-87.40234375,-60.05859375,-58.59375,-59.5703125,0.0,1722223975.4528291
9.765625,-53.22265625,-49.31640625,-24.90234375,0.0,1722223975.4564788
17.578125,-48.828125,-46.875,-29.78515625,0.0,1722223975.4601283
-81.0546875,-42.48046875,-62.98828125,-64.453125,0.0,1722223975.463778
-89.35546875,-42.96875,-67.87109375,-57.12890625,0.0,1722223975.4674277
-1.953125,-44.921875,-53.22265625,-34.1796875,0.0,1722223975.4710774
34.66796875,-34.1796875,-36.1328125,-22.94921875,0.0,1722223975.4747272
-60.05859375,-40.0390625,-42.48046875,-45.41015625,0.0,1722223975.4783769
-121.09375,-57.12890625,-51.7578125,-64.94140625,0.0,1722223975.4820266
-41.50390625,-56.15234375,-39.55078125,-32.71484375,0.0,1722223975.485676
34.1796875,-49.8046875,-34.66796875,-13.18359375,0.0,1722223975.492061
-22.94921875,-52.734375,-36.1328125,-42.96875,0.0,1722223975.4957187
-106.4453125,-48.828125,-38.0859375,-62.01171875,0.0,1722223975.4993765
-60.05859375,-47.8515625,-30.76171875,-34.1796875,0.0,1722223975.5030344
43.45703125,-41.9921875,-22.94921875,-0.48828125,0.0,1722223975.5066922
14.6484375,-37.109375,-36.62109375,-19.04296875,0.0,1722223975.51035
-92.7734375,-41.50390625,-45.41015625,-54.19921875,0.0,1722223975.5140078
-77.63671875,-38.57421875,-27.83203125,-41.9921875,0.0,1722223975.5176656
16.11328125,-39.0625,-28.3203125,-21.484375,0.0,1722223975.5213234
4.8828125,-41.9921875,-38.0859375,-44.921875,0.0,1722223975.5249813
-85.9375,-43.45703125,-32.71484375,-66.40625,0.0,1722223975.528639
-82.03125,-48.828125,-30.2734375,-60.05859375,0.0,1722223975.532297
8.7890625,-48.828125,-20.01953125,-45.41015625,0.0,1722223975.5385227
48.33984375,-50.78125,-30.2734375,-36.62109375,0.0,1722223975.542188
-30.2734375,-57.6171875,-28.3203125,-51.7578125,0.0,1722223975.5458531
-92.7734375,-48.828125,-14.16015625,-69.3359375,0.0,1722223975.5495183
-41.9921875,-42.96875,-22.94921875,-49.31640625,0.0,1722223975.5531836
43.45703125,-41.9921875,-27.83203125,-22.94921875,0.0,1722223975.5568488
-6.34765625,-39.55078125,-19.04296875,-43.9453125,0.0,1722223975.560514
-97.65625,-38.0859375,-8.7890625,-52.734375,0.0,1722223975.5641792
-60.546875,-41.015625,-25.390625,-42.48046875,0.0,1722223975.5678442
28.3203125,-44.921875,-28.80859375,-27.83203125,0.0,1722223975.5715094
12.6953125,-43.9453125,-19.04296875,-33.69140625,0.0,1722223975.5751746
-77.63671875,-39.0625,-29.296875,-52.24609375,0.0,1722223975.5788398
-77.1484375,-45.8984375,-29.78515625,-48.828125,0.0,1722223975.584918
2.44140625,-58.10546875,-16.11328125,-21.97265625,0.0,1722223975.58859
46.875,-56.15234375,-22.4609375,12.6953125,0.0,1722223975.5922618
-34.66796875,-37.109375,-40.52734375,-17.578125,0.0,1722223975.5959337
-101.5625,-29.78515625,-31.25,-64.453125,0.0,1722223975.5996056
-47.8515625,-41.9921875,-21.97265625,-49.31640625,0.0,1722223975.6032774
20.5078125,-38.57421875,-17.578125,-25.390625,0.0,1722223975.6069493
-28.3203125,-26.3671875,-20.5078125,-41.015625,0.0,1722223975.6106215
-110.83984375,-27.34375,-20.5078125,-74.21875,0.0,1722223975.6142933
-58.59375,-30.2734375,-14.16015625,-52.24609375,0.0,1722223975.6179652
28.80859375,-30.76171875,-24.4140625,-31.73828125,0.0,1722223975.621637
-13.671875,-27.83203125,-27.83203125,-59.08203125,0.0,1722223975.625309
-93.26171875,-27.34375,-25.87890625,-69.82421875,0.0,1722223975.6311526
-71.2890625,-26.85546875,-39.0625,-57.12890625,0.0,1722223975.6348302
19.04296875,-28.80859375,-37.109375,-41.9921875,0.0,1722223975.638508
25.87890625,-33.69140625,-27.34375,-48.828125,0.0,1722223975.6421857
-66.40625,-31.73828125,-20.5078125,-62.01171875,0.0,1722223975.6458635
-83.0078125,-28.3203125,-20.5078125,-46.38671875,0.0,1722223975.6495411
10.25390625,-32.71484375,-27.34375,-16.6015625,0.0,1722223975.653219
40.52734375,-31.25,-24.90234375,-17.08984375,0.0,1722223975.6568966
-38.0859375,-23.4375,-21.484375,-50.78125,0.0,1722223975.6605744
-89.35546875,-29.296875,-25.390625,-70.3125,0.0,1722223975.6642523
-29.296875,-41.50390625,-35.15625,-52.734375,0.0,1722223975.66793
32.2265625,-36.1328125,-30.76171875,-39.55078125,0.0,1722223975.6716077
-41.50390625,-37.59765625,-26.85546875,-60.05859375,0.0,1722223975.6772568
-101.5625,-34.1796875,-32.71484375,-67.3828125,0.0,1722223975.6809397
-62.98828125,-29.78515625,-26.3671875,-55.6640625,0.0,1722223975.6846225
12.6953125,-35.15625,-16.6015625,-34.66796875,0.0,1722223975.6883054
0.9765625,-30.76171875,-18.5546875,-28.80859375,0.0,1722223975.6919882
-75.68359375,-30.76171875,-15.625,-43.9453125,0.0,1722223975.695671
-60.546875,-30.76171875,-18.5546875,-44.921875,0.0,1722223975.699354
25.390625,-32.71484375,-31.73828125,-36.1328125,0.0,1722223975.7030368
29.296875,-29.78515625,-31.73828125,-29.78515625,0.0,1722223975.7067196
-60.05859375,-30.2734375,-22.94921875,-46.875,0.0,1722223975.7104025
-85.9375,-38.0859375,-23.92578125,-62.01171875,0.0,1722223975.7140853
-13.671875,-43.9453125,-33.203125,-35.64453125,0.0,1722223975.7177682
38.57421875,-35.64453125,-43.9453125,-18.06640625,0.0,1722223975.724416
-48.33984375,-26.3671875,-41.50390625,-50.78125,0.0,1722223975.7281065
-102.05078125,-35.15625,-34.1796875,-68.84765625,0.0,1722223975.7317967
-13.18359375,-43.45703125,-41.015625,-45.41015625,0.0,1722223975.7354872
39.0625,-41.015625,-39.0625,-30.2734375,0.0,1722223975.7391775
-26.85546875,-42.48046875,-32.71484375,-51.26953125,0.0,1722223975.742868
-83.984375,-49.8046875,-41.50390625,-72.75390625,0.0,1722223975.7465582
-50.29296875,-50.78125,-34.66796875,-62.5,0.0,1722223975.7502484
22.94921875,-41.015625,-26.85546875,-39.0625,0.0,1722223975.753939
0.9765625,-38.57421875,-29.296875,-42.96875,0.0,1722223975.7576292
-98.14453125,-47.8515625,-35.64453125,-65.4296875,0.0,1722223975.7613196
-88.8671875,-52.24609375,-19.04296875,-53.22265625,0.0,1722223975.7650099
9.765625,-45.41015625,-5.37109375,-20.99609375,0.0,1722223975.771489
20.5078125,-43.9453125,-23.92578125,-27.34375,0.0,1722223975.7751863
-53.22265625,-51.7578125,-23.4375,-28.3203125,0.0,1722223975.7788835
-69.3359375,-44.43359375,-16.6015625,-8.7890625,0.0,1722223975.7825806
-19.53125,-37.59765625,-29.78515625,-33.69140625,0.0,1722223975.7862778
13.671875,-36.1328125,-25.390625,-39.55078125,0.0,1722223975.789975
-60.546875,-35.15625,-25.87890625,-57.6171875,0.0,1722223975.793672
-118.1640625,-36.62109375,-37.109375,-83.984375,0.0,1722223975.7973695
-42.48046875,-29.78515625,-31.25,-51.26953125,0.0,1722223975.8010666
38.57421875,-31.25,-27.83203125,-25.87890625,0.0,1722223975.8047638
-25.87890625,-32.2265625,-41.015625,-61.03515625,0.0,1722223975.808461
-105.95703125,-28.3203125,-37.59765625,-82.03125,0.0,1722223975.812158
-79.58984375,-33.69140625,-33.203125,-61.5234375,0.0,1722223975.8184724
2.44140625,-37.59765625,-30.2734375,-46.38671875,0.0,1722223975.8221757
-3.90625,-37.109375,-33.69140625,-51.26953125,0.0,1722223975.825879
-85.9375,-40.0390625,-41.015625,-56.640625,0.0,1722223975.8295825
-83.0078125,-41.015625,-32.2265625,-55.6640625,0.0,1722223975.833286
-0.48828125,-39.55078125,-31.73828125,-40.52734375,0.0,1722223975.8369894
25.87890625,-38.57421875,-37.109375,-34.1796875,0.0,1722223975.8406928
-71.2890625,-40.52734375,-31.73828125,-60.05859375,0.0,1722223975.8443964
-115.234375,-45.8984375,-23.4375,-63.4765625,0.0,1722223975.8480997
-35.64453125,-49.31640625,-31.25,-49.8046875,0.0,1722223975.851803
21.484375,-41.015625,-33.69140625,-36.62109375,0.0,1722223975.8555064
-45.41015625,-39.55078125,-18.5546875,-40.0390625,0.0,1722223975.85921
-117.1875,-45.8984375,-15.13671875,-59.08203125,0.0,1722223975.8652937
-71.77734375,-48.828125,-35.15625,-46.38671875,0.0,1722223975.8690026
16.11328125,-49.8046875,-44.43359375,-12.6953125,0.0,1722223975.8727117
-22.4609375,-46.875,-30.76171875,-27.34375,0.0,1722223975.8764205
-110.3515625,-41.015625,-21.97265625,-57.12890625,0.0,1722223975.8801296
-85.44921875,-38.57421875,-24.90234375,-54.19921875,0.0,1722223975.8838384
5.859375,-42.96875,-31.25,-37.109375,0.0,1722223975.8875473
6.8359375,-41.50390625,-26.3671875,-34.66796875,0.0,1722223975.8912563
-87.40234375,-39.55078125,-20.5078125,-63.96484375,0.0,1722223975.8949652
-99.609375,-36.62109375,-26.85546875,-67.3828125,0.0,1722223975.8986742
-3.90625,-35.15625,-33.69140625,-37.59765625,0.0,1722223975.902383
22.94921875,-39.55078125,-25.87890625,-24.4140625,0.0,1722223975.906092
-78.61328125,-44.43359375,-28.80859375,-57.12890625,0.0,1722223975.9119322
-119.140625,-51.26953125,-48.33984375,-75.1953125,0.0,1722223975.915646
-43.45703125,-51.7578125,-42.96875,-42.96875,0.0,1722223975.9193597
29.296875,-41.50390625,-25.390625,-22.4609375,0.0,1722223975.9230735
-38.57421875,-40.52734375,-19.04296875,-47.8515625,0.0,1722223975.9267871
-113.28125,-40.52734375,-19.53125,-74.21875,0.0,1722223975.930501
-59.5703125,-35.15625,-30.76171875,-59.5703125,0.0,1722223975.9342146
20.99609375,-38.57421875,-29.296875,-33.203125,0.0,1722223975.9379284
-5.859375,-38.57421875,-19.53125,-36.1328125,0.0,1722223975.941642
-87.890625,-36.1328125,-19.53125,-65.4296875,0.0,1722223975.945356
-67.87109375,-40.0390625,-15.625,-55.6640625,0.0,1722223975.9490697
14.6484375,-38.0859375,-24.90234375,-25.87890625,0.0,1722223975.9527833
15.13671875,-42.96875,-33.203125,-35.64453125,0.0,1722223975.9584782
-83.984375,-43.9453125,-37.109375,-63.96484375,0.0,1722223975.962196
-102.5390625,-41.015625,-32.71484375,-60.546875,0.0,1722223975.9659142
-4.39453125,-47.36328125,-15.625,-36.1328125,0.0,1722223975.9696324
35.15625,-48.828125,-14.6484375,-29.296875,0.0,1722223975.9733505
-45.41015625,-44.921875,-20.99609375,-47.36328125,0.0,1722223975.9770684
-86.42578125,-43.9453125,-13.18359375,-65.4296875,0.0,1722223975.9807866
-34.1796875,-46.38671875,-16.11328125,-51.26953125,0.0,1722223975.9845047
25.87890625,-42.96875,-27.34375,-23.92578125,0.0,1722223975.9882228
-3.41796875,-28.80859375,-22.4609375,-34.1796875,0.0,1722223975.9919407
-84.47265625,-36.1328125,-24.90234375,-66.40625,0.0,1722223975.9956589
-66.89453125,-46.38671875,-32.71484375,-54.6875,0.0,1722223975.999377
24.90234375,-40.52734375,-32.2265625,-24.4140625,0.0,1722223976.0048964
-1.953125,-45.41015625,-32.2265625,-38.0859375,0.0,1722223976.0086184
-95.703125,-47.8515625,-34.1796875,-65.4296875,0.0,1722223976.0123403
-83.984375,-48.33984375,-26.3671875,-65.91796875,0.0,1722223976.0160623
8.30078125,-44.43359375,-25.390625,-39.0625,0.0,1722223976.0197842
30.76171875,-36.62109375,-21.484375,-23.4375,0.0,1722223976.023506
-53.7109375,-37.109375,-23.4375,-56.640625,0.0,1722223976.0272279
-94.7265625,-43.45703125,-36.62109375,-77.1484375,0.0,1722223976.0309498
-29.78515625,-46.38671875,-42.96875,-49.8046875,0.0,1722223976.0346718
19.04296875,-41.50390625,-35.64453125,-32.71484375,0.0,1722223976.0383937
-62.5,-47.36328125,-30.2734375,-56.15234375,0.0,1722223976.0421157
-124.0234375,-60.05859375,-40.0390625,-82.51953125,0.0,1722223976.0458376
-59.08203125,-60.05859375,-43.45703125,-55.17578125,0.0,1722223976.0512943
24.4140625,-54.19921875,-32.71484375,-33.69140625,0.0,1722223976.0550199
-18.06640625,-51.26953125,-17.578125,-52.24609375,0.0,1722223976.0587454
-101.07421875,-46.875,-32.2265625,-69.82421875,0.0,1722223976.062471
-67.3828125,-46.875,-38.0859375,-61.5234375,0.0,1722223976.0661964
35.15625,-41.015625,-15.13671875,-24.90234375,0.0,1722223976.069922
20.5078125,-38.57421875,-23.92578125,-26.3671875,0.0,1722223976.0736475
-93.75,-49.31640625,-37.59765625,-66.40625,0.0,1722223976.077373
-105.95703125,-58.10546875,-39.0625,-77.1484375,0.0,1722223976.0810986
9.27734375,-51.26953125,-43.9453125,-34.66796875,0.0,1722223976.084824
46.875,-45.8984375,-42.48046875,-15.625,0.0,1722223976.0885496
-67.87109375,-48.828125,-30.76171875,-59.5703125,0.0,1722223976.0922751
-120.1171875,-53.22265625,-29.78515625,-77.63671875,0.0,1722223976.0984838
-37.59765625,-61.03515625,-41.50390625,-49.8046875,0.0,1722223976.1022143
18.5546875,-55.6640625,-30.76171875,-38.0859375,0.0,1722223976.105945
-58.10546875,-57.12890625,-21.97265625,-64.453125,0.0,1722223976.1096756
-109.375,-60.05859375,-24.90234375,-78.61328125,0.0,1722223976.1134062
-56.640625,-60.546875,-26.85546875,-59.08203125,0.0,1722223976.1171367
5.859375,-64.453125,-38.0859375,-32.71484375,0.0,1722223976.1208673
-41.9921875,-66.89453125,-40.52734375,-47.36328125,0.0,1722223976.124598
-124.0234375,-66.89453125,-23.4375,-67.87109375,0.0,1722223976.1283286
-90.33203125,-68.359375,-10.25390625,-55.6640625,0.0,1722223976.132059
-7.8125,-75.68359375,-15.13671875,-42.96875,0.0,1722223976.1357896
-9.27734375,-72.265625,-29.296875,-39.55078125,0.0,1722223976.1395204
-90.8203125,-62.5,-24.90234375,-54.6875,0.0,1722223976.1456954
-109.375,-62.01171875,-19.53125,-54.6875,0.0,1722223976.149431
-29.296875,-71.77734375,-37.109375,-38.57421875,0.0,1722223976.1531663
11.23046875,-65.91796875,-39.55078125,-45.41015625,0.0,1722223976.1569018
-72.265625,-57.12890625,-30.2734375,-72.75390625,0.0,1722223976.1606374
-115.72265625,-56.640625,-30.2734375,-65.91796875,0.0,1722223976.1643727
-45.8984375,-56.640625,-31.73828125,-40.0390625,0.0,1722223976.1681082
20.99609375,-61.5234375,-39.55078125,-33.69140625,0.0,1722223976.1718435
-29.78515625,-59.08203125,-32.71484375,-36.62109375,0.0,1722223976.175579
-95.21484375,-56.640625,-20.5078125,-47.8515625,0.0,1722223976.1793144
-60.546875,-56.640625,-34.1796875,-50.29296875,0.0,1722223976.18305
31.25,-49.8046875,-38.57421875,-30.76171875,0.0,1722223976.1867852
18.06640625,-41.015625,-30.2734375,-32.2265625,0.0,1722223976.192635
-83.0078125,-43.45703125,-32.71484375,-61.03515625,0.0,1722223976.1963747
-78.125,-47.36328125,-38.0859375,-59.08203125,0.0,1722223976.2001143
21.484375,-47.8515625,-39.55078125,-31.73828125,0.0,1722223976.2038538
23.4375,-46.875,-39.0625,-34.1796875,0.0,1722223976.2075932
-69.3359375,-46.875,-34.1796875,-58.10546875,0.0,1722223976.2113328
-87.890625,-47.36328125,-34.66796875,-53.7109375,0.0,1722223976.2150724
-10.25390625,-44.921875,-32.2265625,-25.87890625,0.0,1722223976.218812
34.1796875,-45.41015625,-32.2265625,-25.390625,0.0,1722223976.2225513
-56.15234375,-53.22265625,-43.9453125,-62.01171875,0.0,1722223976.226291
-113.76953125,-51.26953125,-39.0625,-63.4765625,0.0,1722223976.2300305
-41.50390625,-45.8984375,-30.76171875,-35.64453125,0.0,1722223976.2337701
26.3671875,-53.22265625,-41.015625,-36.62109375,0.0,1722223976.2395024
-41.015625,-54.6875,-57.6171875,-69.3359375,0.0,1722223976.2432458
-115.234375,-51.26953125,-53.22265625,-80.56640625,0.0,1722223976.246989
-76.171875,-51.7578125,-40.52734375,-59.5703125,0.0,1722223976.2507324
11.23046875,-46.38671875,-32.2265625,-26.3671875,0.0,1722223976.2544758
-12.20703125,-43.9453125,-30.76171875,-40.52734375,0.0,1722223976.258219
-98.6328125,-46.875,-39.55078125,-81.0546875,0.0,1722223976.2619624
-82.51953125,-43.9453125,-39.0625,-62.01171875,0.0,1722223976.2657056
7.8125,-43.45703125,-40.52734375,-35.15625,0.0,1722223976.269449
22.4609375,-46.875,-30.2734375,-49.8046875,0.0,1722223976.2731922
-70.80078125,-45.8984375,-19.04296875,-70.80078125,0.0,1722223976.2769356
-89.84375,-38.57421875,-22.4609375,-63.96484375,0.0,1722223976.280679
-19.53125,-38.57421875,-34.1796875,-59.08203125,0.0,1722223976.2863178
19.53125,-39.55078125,-44.43359375,-62.98828125,0.0,1722223976.2900646
-45.41015625,-32.2265625,-39.0625,-71.2890625,0.0,1722223976.2938113
-96.19140625,-29.296875,-40.52734375,-79.1015625,0.0,1722223976.2975583
-41.9921875,-32.2265625,-43.45703125,-62.01171875,0.0,1722223976.301305
16.6015625,-42.48046875,-30.2734375,-44.43359375,0.0,1722223976.3050518
-29.296875,-34.66796875,-18.06640625,-50.29296875,0.0,1722223976.3087988
-115.234375,-32.2265625,-20.01953125,-76.66015625,0.0,1722223976.3125455
-98.6328125,-47.8515625,-33.203125,-71.77734375,0.0,1722223976.3162923
-4.8828125,-46.875,-46.875,-44.921875,0.0,1722223976.320039
-5.859375,-41.9921875,-43.45703125,-51.7578125,0.0,1722223976.323786
-94.7265625,-36.62109375,-42.96875,-74.70703125,0.0,1722223976.3275328
-76.171875,-29.78515625,-52.734375,-57.12890625,0.0,1722223976.3338203
19.53125,-34.1796875,-40.0390625,-21.97265625,0.0,1722223976.3375716
15.13671875,-37.59765625,-24.4140625,-56.640625,0.0,1722223976.3413231
-74.21875,-43.9453125,-28.3203125,-96.6796875,0.0,1722223976.3450747
-93.75,-47.8515625,-33.203125,-84.9609375,0.0,1722223976.348826
-6.34765625,-48.828125,-26.85546875,-52.24609375,0.0,1722223976.3525774
-35.64453125,-59.5703125,-36.62109375,-75.1953125,0.0,1722223976.3563287
-63.4765625,-67.3828125,-41.50390625,-82.51953125,0.0,1722223976.3600802
-0.9765625,-59.5703125,-27.83203125,-49.8046875,0.0,1722223976.3638318
-85.9375,-63.4765625,-23.4375,-74.70703125,0.0,1722223976.367583
-123.046875,-64.453125,-21.484375,-83.984375,0.0,1722223976.3713346
-41.015625,-63.4765625,-18.5546875,-60.05859375,0.0,1722223976.3750858
14.6484375,-62.5,-36.62109375,-52.24609375,0.0,1722223976.381203
-43.45703125,-60.546875,-51.26953125,-77.1484375,0.0,1722223976.3849585
-105.46875,-57.6171875,-37.59765625,-93.75,0.0,1722223976.388714
-51.7578125,-47.8515625,-31.25,-54.6875,0.0,1722223976.3924696
27.83203125,-51.7578125,-34.1796875,-20.01953125,0.0,1722223976.3962255
-13.18359375,-55.17578125,-35.64453125,-54.6875,0.0,1722223976.399981
-104.4921875,-52.24609375,-36.1328125,-83.984375,0.0,1722223976.4037366
-79.58984375,-45.41015625,-26.3671875,-53.22265625,0.0,1722223976.4074922
-7.32421875,-47.36328125,-29.78515625,-26.3671875,0.0,1722223976.4112477
-20.01953125,-48.828125,-41.015625,-49.8046875,0.0,1722223976.4150035
-82.03125,-40.0390625,-42.96875,-75.1953125,0.0,1722223976.418759
-79.1015625,-40.0390625,-45.41015625,-63.96484375,0.0,1722223976.4225147
-8.7890625,-45.41015625,-41.9921875,-30.76171875,0.0,1722223976.4284286
16.6015625,-50.78125,-43.9453125,-32.2265625,0.0,1722223976.432188
-53.22265625,-41.015625,-42.96875,-66.89453125,0.0,1722223976.4359474
-90.33203125,-30.2734375,-39.0625,-68.84765625,0.0,1722223976.4397066
-25.87890625,-30.2734375,-38.0859375,-43.9453125,0.0,1722223976.443466
47.36328125,-25.87890625,-39.55078125,-31.25,0.0,1722223976.4472253
-12.20703125,-24.4140625,-49.8046875,-50.29296875,0.0,1722223976.4509847
-80.078125,-24.90234375,-36.62109375,-61.03515625,0.0,1722223976.454744
-51.7578125,-31.73828125,-42.96875,-62.98828125,0.0,1722223976.4585035
23.92578125,-34.66796875,-53.22265625,-42.48046875,0.0,1722223976.4622629
2.9296875,-32.2265625,-40.0390625,-45.8984375,0.0,1722223976.4660223
-93.26171875,-33.203125,-46.875,-88.8671875,0.0,1722223976.4697816
-83.49609375,-37.59765625,-55.6640625,-89.84375,0.0,1722223976.4754968
-1.46484375,-36.1328125,-49.8046875,-46.38671875,0.0,1722223976.4792595
12.20703125,-32.71484375,-42.96875,-35.15625,0.0,1722223976.4830222
-65.91796875,-26.3671875,-46.875,-66.89453125,0.0,1722223976.486785
-104.00390625,-29.296875,-45.41015625,-69.82421875,0.0,1722223976.4905477
-27.83203125,-36.1328125,-39.55078125,-37.59765625,0.0,1722223976.4943101
26.3671875,-29.78515625,-40.52734375,-19.53125,0.0,1722223976.4980729
-44.43359375,-28.3203125,-39.0625,-37.59765625,0.0,1722223976.5018356
-101.07421875,-40.0390625,-45.41015625,-60.05859375,0.0,1722223976.5055983
-42.48046875,-36.1328125,-49.8046875,-39.0625,0.0,1722223976.509361
32.2265625,-25.390625,-47.8515625,-18.06640625,0.0,1722223976.5131238
-24.90234375,-30.76171875,-50.78125,-48.828125,0.0,1722223976.5168865
-100.5859375,-31.73828125,-50.29296875,-72.75390625,0.0,1722223976.52251
-57.12890625,-31.25,-49.8046875,-42.96875,0.0,1722223976.5262759
22.4609375,-26.3671875,-42.96875,-12.6953125,0.0,1722223976.5300417
3.41796875,-21.484375,-35.15625,-37.59765625,0.0,1722223976.5338073
-81.54296875,-29.78515625,-42.96875,-92.7734375,0.0,1722223976.537573
-75.68359375,-24.4140625,-46.38671875,-89.84375,0.0,1722223976.541339
13.671875,-19.53125,-39.0625,-43.9453125,0.0,1722223976.5451047
37.109375,-37.59765625,-50.29296875,-41.9921875,0.0,1722223976.5488706
-51.26953125,-38.0859375,-55.17578125,-73.2421875,0.0,1722223976.5526364
-88.8671875,-31.73828125,-41.50390625,-77.63671875,0.0,1722223976.5564022
-10.7421875,-31.25,-48.828125,-52.24609375,0.0,1722223976.560168
31.25,-26.85546875,-49.8046875,-29.296875,0.0,1722223976.5639336
-43.45703125,-26.3671875,-45.8984375,-60.05859375,0.0,1722223976.5694017
-100.5859375,-36.1328125,-51.7578125,-99.12109375,0.0,1722223976.5731702
-56.640625,-42.96875,-56.15234375,-78.61328125,0.0,1722223976.5769389
14.6484375,-43.45703125,-56.640625,-45.41015625,0.0,1722223976.5807073
-18.5546875,-42.48046875,-47.8515625,-62.98828125,0.0,1722223976.584476
-86.42578125,-31.25,-49.8046875,-76.66015625,0.0,1722223976.5882444
-48.828125,-27.83203125,-58.10546875,-55.6640625,0.0,1722223976.5920131
8.30078125,-42.96875,-56.640625,-31.73828125,0.0,1722223976.5957816
-22.4609375,-47.36328125,-54.6875,-36.62109375,0.0,1722223976.5995502
-97.65625,-47.36328125,-44.43359375,-57.12890625,0.0,1722223976.6033187
-97.65625,-55.6640625,-41.015625,-61.5234375,0.0,1722223976.6070874
-1.46484375,-52.734375,-51.26953125,-32.2265625,0.0,1722223976.6108558
21.484375,-40.52734375,-55.6640625,-19.53125,0.0,1722223976.616997
-60.05859375,-32.2265625,-37.109375,-57.6171875,0.0,1722223976.6207693
-77.1484375,-36.1328125,-38.57421875,-65.91796875,0.0,1722223976.6245418
-4.8828125,-48.33984375,-54.19921875,-28.80859375,0.0,1722223976.628314
41.9921875,-42.48046875,-47.36328125,-17.08984375,0.0,1722223976.6320865
-11.71875,-34.66796875,-39.0625,-37.109375,0.0,1722223976.6358588
-78.125,-41.9921875,-46.875,-62.98828125,0.0,1722223976.6396313
-43.45703125,-48.828125,-51.26953125,-50.78125,0.0,1722223976.6434035
38.0859375,-42.96875,-47.8515625,-16.11328125,0.0,1722223976.647176
7.32421875,-34.66796875,-46.38671875,-40.52734375,0.0,1722223976.6509483
-82.51953125,-31.73828125,-49.8046875,-81.54296875,0.0,1722223976.6547208
-64.94140625,-28.80859375,-57.12890625,-74.70703125,0.0,1722223976.658493
27.34375,-25.87890625,-52.24609375,-34.66796875,0.0,1722223976.6644168
14.16015625,-28.3203125,-45.41015625,-34.1796875,0.0,1722223976.6681924
-78.61328125,-35.64453125,-48.828125,-73.73046875,0.0,1722223976.6719682
-70.3125,-35.15625,-46.38671875,-74.21875,0.0,1722223976.675744
-3.90625,-31.73828125,-61.03515625,-46.875,0.0,1722223976.6795197
14.16015625,-33.69140625,-59.5703125,-34.66796875,0.0,1722223976.6832955
-61.5234375,-38.0859375,-47.36328125,-71.77734375,0.0,1722223976.6870713
-104.00390625,-40.0390625,-53.22265625,-87.890625,0.0,1722223976.690847
-32.71484375,-39.0625,-46.38671875,-41.50390625,0.0,1722223976.6946228
20.99609375,-42.96875,-47.36328125,-25.390625,0.0,1722223976.6983986
-39.0625,-41.015625,-58.59375,-50.78125,0.0,1722223976.7021742
-97.65625,-38.57421875,-52.24609375,-70.3125,0.0,1722223976.70595
-60.05859375,-39.55078125,-53.22265625,-58.10546875,0.0,1722223976.711753
11.71875,-45.41015625,-62.01171875,-38.57421875,0.0,1722223976.7155318
-16.6015625,-42.48046875,-49.31640625,-47.8515625,0.0,1722223976.7193108
-96.6796875,-37.109375,-38.57421875,-68.84765625,0.0,1722223976.7230895
-69.3359375,-42.48046875,-47.8515625,-59.08203125,0.0,1722223976.7268684
14.16015625,-44.921875,-64.94140625,-29.296875,0.0,1722223976.7306473
5.859375,-40.52734375,-65.91796875,-38.57421875,0.0,1722223976.7344263
-72.265625,-42.48046875,-52.24609375,-62.01171875,0.0,1722223976.7382052
-90.33203125,-45.41015625,-62.5,-62.98828125,0.0,1722223976.741984
-25.390625,-43.9453125,-62.5,-51.26953125,0.0,1722223976.7457628
44.43359375,-30.2734375,-61.5234375,-31.25,0.0,1722223976.7495418
-5.37109375,-25.87890625,-46.875,-47.8515625,0.0,1722223976.7533207
-82.03125,-33.203125,-34.1796875,-76.171875,0.0,1722223976.759002
-33.203125,-41.9921875,-44.921875,-62.5,0.0,1722223976.7627838
25.87890625,-54.19921875,-45.41015625,-35.15625,0.0,1722223976.7665656
-31.73828125,-50.78125,-39.0625,-48.33984375,0.0,1722223976.7703474
-96.6796875,-48.828125,-43.9453125,-76.66015625,0.0,1722223976.7741292
-67.3828125,-56.15234375,-47.36328125,-62.01171875,0.0,1722223976.777911
-4.39453125,-56.15234375,-46.875,-25.87890625,0.0,1722223976.7816925
-31.25,-54.6875,-38.0859375,-35.64453125,0.0,1722223976.7854743
-122.55859375,-63.4765625,-26.3671875,-77.1484375,0.0,1722223976.789256
-130.37109375,-69.3359375,-37.59765625,-83.49609375,0.0,1722223976.793038
-61.5234375,-72.265625,-51.26953125,-49.8046875,0.0,1722223976.7968197
-34.66796875,-67.3828125,-38.0859375,-18.5546875,0.0,1722223976.8006015
-98.6328125,-62.98828125,-36.1328125,-50.78125,0.0,1722223976.806105
-138.18359375,-66.40625,-56.15234375,-86.9140625,0.0,1722223976.8098893
-56.15234375,-62.5,-45.8984375,-50.78125,0.0,1722223976.8136737
8.30078125,-55.17578125,-39.0625,-21.484375,0.0,1722223976.817458
-79.1015625,-58.10546875,-50.29296875,-63.96484375,0.0,1722223976.8212423
-132.8125,-59.5703125,-46.875,-95.21484375,0.0,1722223976.8250268
-64.453125,-52.734375,-41.015625,-52.24609375,0.0,1722223976.828811
11.71875,-52.734375,-37.109375,-10.7421875,0.0,1722223976.8325953
-45.41015625,-60.05859375,-47.8515625,-50.78125,0.0,1722223976.8363798
-127.44140625,-60.05859375,-55.6640625,-90.33203125,0.0,1722223976.840164
-77.1484375,-51.26953125,-52.24609375,-65.91796875,0.0,1722223976.8439484
4.39453125,-51.26953125,-51.7578125,-13.671875,0.0,1722223976.8477325
-24.4140625,-56.15234375,-56.15234375,-21.97265625,0.0,1722223976.8531406
-110.3515625,-51.26953125,-58.10546875,-70.80078125,0.0,1722223976.8569272
-107.91015625,-47.8515625,-60.05859375,-65.4296875,0.0,1722223976.860714
-34.1796875,-50.78125,-56.15234375,-31.73828125,0.0,1722223976.8645005
-5.859375,-52.734375,-57.12890625,-17.578125,0.0,1722223976.8682873
-67.87109375,-50.78125,-60.05859375,-44.921875,0.0,1722223976.8720741
-92.28515625,-44.43359375,-55.6640625,-75.68359375,0.0,1722223976.8758607
-26.3671875,-40.52734375,-51.7578125,-48.828125,0.0,1722223976.8796475
20.5078125,-40.0390625,-56.640625,-19.04296875,0.0,1722223976.883434
-33.69140625,-29.78515625,-58.59375,-42.48046875,0.0,1722223976.8872209
-85.9375,-31.73828125,-54.6875,-64.94140625,0.0,1722223976.8910077
-37.109375,-36.1328125,-52.734375,-41.50390625,0.0,1722223976.8947942
20.5078125,-34.1796875,-62.5,-25.87890625,0.0,1722223976.9001086
-23.4375,-32.71484375,-66.89453125,-47.36328125,0.0,1722223976.9038975
-83.0078125,-35.64453125,-56.15234375,-66.40625,0.0,1722223976.9076865
-61.03515625,-39.55078125,-55.17578125,-57.6171875,0.0,1722223976.9114754
8.30078125,-37.59765625,-64.94140625,-27.83203125,0.0,1722223976.9152644
9.27734375,-37.59765625,-60.546875,-33.69140625,0.0,1722223976.919053
-67.3828125,-37.59765625,-53.22265625,-63.96484375,0.0,1722223976.922842
-89.84375,-41.50390625,-57.6171875,-72.75390625,0.0,1722223976.926631
-20.99609375,-51.7578125,-61.03515625,-44.43359375,0.0,1722223976.93042
18.06640625,-49.8046875,-58.59375,-29.296875,0.0,1722223976.9342089
-52.734375,-44.43359375,-57.12890625,-68.84765625,0.0,1722223976.9379976
-96.19140625,-46.875,-59.5703125,-76.171875,0.0,1722223976.9417865
-32.71484375,-47.8515625,-70.80078125,-44.921875,0.0,1722223976.9470413
32.71484375,-41.9921875,-55.6640625,-17.578125,0.0,1722223976.9508321
-17.08984375,-30.76171875,-42.96875,-40.0390625,0.0,1722223976.9546232
-96.19140625,-31.25,-55.6640625,-71.2890625,0.0,1722223976.958414
-61.03515625,-38.57421875,-68.84765625,-60.546875,0.0,1722223976.9622052
20.5078125,-41.9921875,-69.82421875,-20.99609375,0.0,1722223976.965996
-22.4609375,-40.52734375,-62.01171875,-31.25,0.0,1722223976.9697871
-104.4921875,-38.0859375,-64.453125,-79.58984375,0.0,1722223976.973578
-79.1015625,-36.62109375,-61.03515625,-58.59375,0.0,1722223976.977369
-2.9296875,-43.45703125,-54.6875,-19.53125,0.0,1722223976.98116
9.765625,-46.38671875,-60.546875,-19.53125,0.0,1722223976.9849508
-71.77734375,-47.36328125,-58.10546875,-56.640625,0.0,1722223976.9887419
-83.0078125,-41.9921875,-52.24609375,-66.89453125,0.0,1722223976.9944842
5.859375,-31.73828125,-50.78125,-27.34375,0.0,1722223976.998278
43.45703125,-33.203125,-53.7109375,-19.53125,0.0,1722223977.0020716
-28.80859375,-38.57421875,-55.17578125,-44.921875,0.0,1722223977.0058653
-78.125,-40.0390625,-55.17578125,-54.19921875,0.0,1722223977.009659
-21.484375,-38.0859375,-54.6875,-44.43359375,0.0,1722223977.0134525
29.296875,-39.0625,-58.10546875,-25.87890625,0.0,1722223977.0172462
-30.76171875,-39.0625,-75.1953125,-53.7109375,0.0,1722223977.02104
-87.40234375,-39.0625,-72.265625,-82.51953125,0.0,1722223977.0248337
-44.43359375,-39.55078125,-62.98828125,-62.5,0.0,1722223977.0286274
27.34375,-43.9453125,-84.9609375,-37.109375,0.0,1722223977.032421
-0.48828125,-41.015625,-73.2421875,-45.41015625,0.0,1722223977.0362146
-76.66015625,-34.66796875,-47.8515625,-73.2421875,0.0,1722223977.0418348
-52.24609375,-40.0390625,-61.5234375,-62.5,0.0,1722223977.045631
3.90625,-45.8984375,-70.3125,-38.0859375,0.0,1722223977.049427
-14.16015625,-41.9921875,-53.7109375,-35.64453125,0.0,1722223977.0532234
-95.703125,-40.52734375,-46.875,-60.546875,0.0,1722223977.0570195
-119.140625,-42.48046875,-44.921875,-75.68359375,0.0,1722223977.0608156
-50.29296875,-51.26953125,-57.6171875,-53.22265625,0.0,1722223977.064612
-5.859375,-49.8046875,-58.10546875,-27.34375,0.0,1722223977.068408
-61.03515625,-38.0859375,-46.875,-50.78125,0.0,1722223977.072204
-103.02734375,-34.1796875,-49.31640625,-75.1953125,0.0,1722223977.0760005
-60.546875,-42.48046875,-52.734375,-59.5703125,0.0,1722223977.0797966
23.4375,-50.29296875,-45.8984375,-14.16015625,0.0,1722223977.0835927
21.97265625,-35.15625,-50.29296875,-6.8359375,0.0,1722223977.0891652
-69.82421875,-35.15625,-62.98828125,-60.546875,0.0,1722223977.092964
-56.15234375,-33.69140625,-57.12890625,-66.89453125,0.0,1722223977.0967624
40.0390625,-29.296875,-55.6640625,-23.92578125,0.0,1722223977.100561
22.4609375,-32.2265625,-64.453125,-26.85546875,0.0,1722223977.1043596
-65.91796875,-27.34375,-62.98828125,-69.82421875,0.0,1722223977.108158
-70.3125,-20.01953125,-62.98828125,-77.1484375,0.0,1722223977.1119566
-10.25390625,-29.78515625,-77.1484375,-53.7109375,0.0,1722223977.1157553
4.8828125,-30.76171875,-71.77734375,-35.64453125,0.0,1722223977.1195538
-81.54296875,-25.87890625,-73.73046875,-75.1953125,0.0,1722223977.1233523
-115.72265625,-27.34375,-83.0078125,-98.6328125,0.0,1722223977.127151
-37.109375,-24.4140625,-75.68359375,-71.2890625,0.0,1722223977.1309495
21.97265625,-24.4140625,-77.1484375,-48.828125,0.0,1722223977.1364477
-33.69140625,-25.390625,-83.0078125,-70.80078125,0.0,1722223977.1402485
-86.42578125,-26.85546875,-78.61328125,-93.75,0.0,1722223977.1440492
-28.3203125,-29.78515625,-77.63671875,-61.03515625,0.0,1722223977.14785
39.55078125,-35.15625,-71.77734375,-25.87890625,0.0,1722223977.151651
2.44140625,-33.203125,-63.4765625,-41.015625,0.0,1722223977.1554518
-72.75390625,-29.296875,-66.89453125,-73.73046875,0.0,1722223977.1592526
-64.453125,-37.59765625,-72.75390625,-79.1015625,0.0,1722223977.1630533
25.390625,-40.0390625,-70.80078125,-36.1328125,0.0,1722223977.1668541
23.92578125,-35.64453125,-69.3359375,-25.390625,0.0,1722223977.170655
-70.80078125,-34.66796875,-71.2890625,-72.265625,0.0,1722223977.174456
-73.73046875,-34.1796875,-68.84765625,-70.80078125,0.0,1722223977.1782565
-13.18359375,-38.57421875,-64.453125,-37.59765625,0.0,1722223977.1835272
13.671875,-41.015625,-65.91796875,-20.01953125,0.0,1722223977.18733
-48.33984375,-33.69140625,-72.75390625,-41.9921875,0.0,1722223977.1911328
-86.42578125,-36.62109375,-71.2890625,-65.4296875,0.0,1722223977.1949356
-23.92578125,-43.9453125,-76.171875,-40.52734375,0.0,1722223977.1987383
32.71484375,-40.0390625,-79.58984375,-17.08984375,0.0,1722223977.2025409
-16.6015625,-34.66796875,-77.1484375,-37.109375,0.0,1722223977.2063437
-83.0078125,-33.203125,-71.77734375,-68.84765625,0.0,1722223977.2101464
-43.45703125,-34.66796875,-64.94140625,-66.40625,0.0,1722223977.2139492
24.4140625,-33.203125,-64.453125,-33.69140625,0.0,1722223977.217752
-1.953125,-36.62109375,-61.03515625,-33.69140625,0.0,1722223977.2215545
-64.94140625,-37.109375,-53.22265625,-64.94140625,0.0,1722223977.2253573
-60.05859375,-36.62109375,-62.01171875,-73.73046875,0.0,1722223977.2305555
6.8359375,-41.015625,-74.70703125,-38.0859375,0.0,1722223977.23436
19.53125,-40.52734375,-69.3359375,-28.3203125,0.0,1722223977.2381644
-43.45703125,-37.59765625,-63.96484375,-66.40625,0.0,1722223977.2419689
-68.84765625,-39.0625,-71.77734375,-79.1015625,0.0,1722223977.2457736
-20.5078125,-41.015625,-62.5,-50.29296875,0.0,1722223977.249578
29.78515625,-36.1328125,-54.6875,-21.97265625,0.0,1722223977.2533824
-24.4140625,-32.71484375,-55.6640625,-41.50390625,0.0,1722223977.2571871
-86.42578125,-31.73828125,-51.26953125,-62.01171875,0.0,1722223977.2609916
-39.0625,-29.296875,-52.734375,-44.43359375,0.0,1722223977.264796
32.71484375,-31.25,-50.78125,-6.34765625,0.0,1722223977.2686005
9.765625,-32.71484375,-47.8515625,-18.06640625,0.0,1722223977.2724051
-78.61328125,-36.62109375,-54.19921875,-59.5703125,0.0,1722223977.27751
-67.3828125,-46.38671875,-60.546875,-51.7578125,0.0,1722223977.281316
13.671875,-48.828125,-65.91796875,-26.85546875,0.0,1722223977.2851222
-9.765625,-46.875,-55.6640625,-36.62109375,0.0,1722223977.2889285
-91.30859375,-39.55078125,-53.7109375,-70.80078125,0.0,1722223977.2927346
-80.078125,-39.0625,-68.359375,-67.3828125,0.0,1722223977.2965407
3.90625,-43.9453125,-56.15234375,-35.15625,0.0,1722223977.3003469
16.11328125,-44.43359375,-47.8515625,-22.94921875,0.0,1722223977.304153
-67.3828125,-37.59765625,-64.94140625,-58.59375,0.0,1722223977.307959
-97.16796875,-37.109375,-64.453125,-67.87109375,0.0,1722223977.3117654
-26.85546875,-37.59765625,-56.15234375,-28.80859375,0.0,1722223977.3155715
4.39453125,-43.9453125,-57.12890625,-20.01953125,0.0,1722223977.3193777
-53.22265625,-43.9453125,-57.12890625,-46.38671875,0.0,1722223977.3244774
-100.09765625,-35.15625,-55.17578125,-66.40625,0.0,1722223977.3282852
-66.89453125,-41.50390625,-62.01171875,-59.08203125,0.0,1722223977.332093
-0.9765625,-44.43359375,-60.546875,-23.92578125,0.0,1722223977.3359008
-29.78515625,-38.0859375,-47.8515625,-25.87890625,0.0,1722223977.3397086
-86.42578125,-33.203125,-48.33984375,-47.8515625,0.0,1722223977.343516
-57.12890625,-40.52734375,-57.6171875,-38.57421875,0.0,1722223977.347324
0.9765625,-52.734375,-65.91796875,-16.11328125,0.0,1722223977.3511317
-3.90625,-49.31640625,-66.89453125,-20.5078125,0.0,1722223977.3549395
-68.84765625,-43.9453125,-49.8046875,-52.24609375,0.0,1722223977.3587472
-78.125,-47.8515625,-52.24609375,-62.98828125,0.0,1722223977.362555
-3.41796875,-44.921875,-70.3125,-29.78515625,0.0,1722223977.3663628
33.203125,-39.0625,-63.96484375,8.7890625,0.0,1722223977.3718526
-38.0859375,-41.50390625,-62.01171875,-21.97265625,0.0,1722223977.3756623
-95.703125,-44.921875,-63.96484375,-70.3125,0.0,1722223977.3794723
-46.875,-48.828125,-57.6171875,-47.8515625,0.0,1722223977.383282
3.90625,-54.19921875,-54.19921875,-23.4375,0.0,1722223977.3870919
-51.26953125,-52.24609375,-51.26953125,-45.8984375,0.0,1722223977.3909018
-107.91015625,-52.734375,-53.7109375,-64.94140625,0.0,1722223977.3947115
-76.66015625,-57.12890625,-62.01171875,-64.453125,0.0,1722223977.3985214
0.48828125,-48.33984375,-63.4765625,-33.203125,0.0,1722223977.402331
-7.32421875,-37.59765625,-49.8046875,-26.85546875,0.0,1722223977.406141
-86.42578125,-48.33984375,-44.43359375,-47.36328125,0.0,1722223977.4099507
-67.87109375,-48.33984375,-40.0390625,-50.29296875,0.0,1722223977.4137607
8.7890625,-46.38671875,-25.87890625,-26.3671875,0.0,1722223977.4191725
-1.46484375,-54.19921875,-30.2734375,-22.4609375,0.0,1722223977.4229844
-89.84375,-57.12890625,-37.109375,-62.01171875,0.0,1722223977.426796
-102.5390625,-60.546875,-37.59765625,-74.70703125,0.0,1722223977.4306078
-11.71875,-50.78125,-32.71484375,-31.73828125,0.0,1722223977.4344196
24.4140625,-47.8515625,-39.0625,-10.7421875,0.0,1722223977.4382315
-54.6875,-51.26953125,-46.38671875,-50.29296875,0.0,1722223977.442043
-99.12109375,-52.24609375,-41.9921875,-75.68359375,0.0,1722223977.445855
-26.3671875,-39.55078125,-42.48046875,-43.9453125,0.0,1722223977.4496667
25.390625,-39.0625,-46.38671875,-18.06640625,0.0,1722223977.4534783
-44.921875,-54.19921875,-59.5703125,-58.10546875,0.0,1722223977.4572902
-104.00390625,-49.8046875,-54.19921875,-82.03125,0.0,1722223977.461102
-62.5,-47.36328125,-45.8984375,-57.6171875,0.0,1722223977.4663296
0.48828125,-52.734375,-50.29296875,-36.1328125,0.0,1722223977.4701428
-19.04296875,-56.640625,-48.828125,-46.38671875,0.0,1722223977.4739563
-83.984375,-50.78125,-41.50390625,-77.1484375,0.0,1722223977.4777699
-78.61328125,-45.41015625,-31.25,-78.125,0.0,1722223977.4815834
-16.6015625,-44.921875,-35.64453125,-37.109375,0.0,1722223977.4853966
-11.23046875,-40.0390625,-42.48046875,-20.01953125,0.0,1722223977.4892101
-81.54296875,-34.1796875,-34.1796875,-61.03515625,0.0,1722223977.4930236
-83.0078125,-34.1796875,-37.59765625,-67.3828125,0.0,1722223977.4968371
-16.11328125,-40.0390625,-57.12890625,-36.1328125,0.0,1722223977.5006504
21.484375,-39.0625,-62.98828125,-15.13671875,0.0,1722223977.504464
-40.52734375,-38.57421875,-49.8046875,-49.8046875,0.0,1722223977.5082774
-88.8671875,-39.55078125,-43.9453125,-81.54296875,0.0,1722223977.5134494
-25.87890625,-38.0859375,-47.36328125,-61.5234375,0.0,1722223977.5172644
30.2734375,-41.9921875,-53.22265625,-30.2734375,0.0,1722223977.5210795
-19.04296875,-48.828125,-55.6640625,-48.828125,0.0,1722223977.5248945
-84.47265625,-49.31640625,-43.9453125,-84.9609375,0.0,1722223977.5287097
-55.17578125,-46.38671875,-47.8515625,-70.3125,0.0,1722223977.5325246
20.5078125,-41.015625,-52.734375,-26.85546875,0.0,1722223977.5363398
6.34765625,-33.203125,-45.8984375,-31.25,0.0,1722223977.5401547
-64.94140625,-29.78515625,-39.0625,-62.5,0.0,1722223977.5439699
-78.125,-34.66796875,-39.0625,-65.91796875,0.0,1722223977.5477848
-17.578125,-36.62109375,-47.36328125,-40.52734375,0.0,1722223977.5515997
2.44140625,-29.296875,-51.26953125,-23.4375,0.0,1722223977.555415
-81.54296875,-32.71484375,-49.8046875,-60.05859375,0.0,1722223977.560453
-118.1640625,-43.9453125,-50.78125,-79.1015625,0.0,1722223977.5642695
-55.17578125,-43.45703125,-51.26953125,-44.921875,0.0,1722223977.568086
-10.25390625,-38.0859375,-52.24609375,-22.94921875,0.0,1722223977.5719025
-76.171875,-41.9921875,-53.22265625,-63.96484375,0.0,1722223977.5757189
-135.7421875,-44.43359375,-47.8515625,-89.35546875,0.0,1722223977.5795352
-71.2890625,-45.41015625,-47.36328125,-53.7109375,0.0,1722223977.5833519
5.859375,-40.52734375,-36.1328125,-10.25390625,0.0,1722223977.5871682
-49.8046875,-38.0859375,-39.0625,-40.52734375,0.0,1722223977.5909846
-109.86328125,-44.921875,-45.8984375,-82.03125,0.0,1722223977.5948012
-65.4296875,-48.33984375,-39.55078125,-61.5234375,0.0,1722223977.5986176
12.20703125,-42.48046875,-43.9453125,-34.66796875,0.0,1722223977.6024342
-2.44140625,-36.62109375,-51.26953125,-54.19921875,0.0,1722223977.6073809
-82.03125,-32.71484375,-50.78125,-87.890625,0.0,1722223977.6111984
-83.0078125,-34.1796875,-41.50390625,-71.77734375,0.0,1722223977.6150162
-11.23046875,-39.55078125,-42.48046875,-40.0390625,0.0,1722223977.618834
19.04296875,-37.59765625,-51.7578125,-26.85546875,0.0,1722223977.6226518
-45.41015625,-36.1328125,-54.6875,-48.33984375,0.0,1722223977.6264696
-95.21484375,-36.62109375,-49.31640625,-60.05859375,0.0,1722223977.6302872
-31.73828125,-40.0390625,-57.12890625,-34.66796875,0.0,1722223977.634105
14.16015625,-42.48046875,-62.5,-26.85546875,0.0,1722223977.6379228
-50.78125,-37.59765625,-46.875,-53.22265625,0.0,1722223977.6417406
-117.67578125,-38.0859375,-42.96875,-72.75390625,0.0,1722223977.6455584
-78.61328125,-41.015625,-54.6875,-59.08203125,0.0,1722223977.649376
3.90625,-46.875,-60.05859375,-34.1796875,0.0,1722223977.65424
-23.4375,-46.875,-56.640625,-48.33984375,0.0,1722223977.658059
-89.84375,-38.0859375,-36.62109375,-65.91796875,0.0,1722223977.6618779
-72.75390625,-40.0390625,-27.34375,-68.84765625,0.0,1722223977.6656969
-2.44140625,-41.9921875,-38.0859375,-41.9921875,0.0,1722223977.6695156
-2.9296875,-38.0859375,-41.50390625,-26.85546875,0.0,1722223977.6733346
-80.078125,-36.62109375,-34.66796875,-61.03515625,0.0,1722223977.6771536
-85.44921875,-41.9921875,-42.48046875,-77.1484375,0.0,1722223977.6809726
-11.71875,-44.43359375,-52.734375,-41.50390625,0.0,1722223977.6847913
24.90234375,-38.0859375,-46.875,-5.859375,0.0,1722223977.6886103
-44.921875,-40.52734375,-40.0390625,-41.9921875,0.0,1722223977.6924293
-86.42578125,-47.36328125,-43.9453125,-68.84765625,0.0,1722223977.696248
-25.390625,-40.0390625,-44.43359375,-33.69140625,0.0,1722223977.7010603
40.0390625,-39.55078125,-37.109375,-5.37109375,0.0,1722223977.7048805
-13.18359375,-40.52734375,-41.015625,-42.96875,0.0,1722223977.7087004
-87.40234375,-44.43359375,-49.31640625,-83.49609375,0.0,1722223977.7125204
-47.8515625,-46.38671875,-58.59375,-68.359375,0.0,1722223977.7163405
22.94921875,-43.9453125,-53.22265625,-22.4609375,0.0,1722223977.7201605
1.953125,-46.875,-45.8984375,-23.92578125,0.0,1722223977.7239804
-81.54296875,-43.9453125,-50.29296875,-71.77734375,0.0,1722223977.7278006
-68.359375,-39.55078125,-45.41015625,-71.77734375,0.0,1722223977.7316206
1.953125,-42.96875,-40.52734375,-32.71484375,0.0,1722223977.7354405
14.16015625,-48.33984375,-38.0859375,-7.32421875,0.0,1722223977.7392607
-30.76171875,-40.52734375,-40.52734375,-23.4375,0.0,1722223977.7430806
-73.2421875,-23.4375,-42.48046875,-64.453125,0.0,1722223977.748364
-38.57421875,-25.390625,-39.0625,-67.3828125,0.0,1722223977.7521856
0.48828125,-32.71484375,-37.59765625,-50.78125,0.0,1722223977.7560072
-54.6875,-29.78515625,-40.0390625,-65.4296875,0.0,1722223977.7598288
-114.2578125,-29.78515625,-46.38671875,-98.14453125,0.0,1722223977.7636504
-72.265625,-30.2734375,-55.17578125,-85.9375,0.0,1722223977.767472
-22.94921875,-35.15625,-68.359375,-52.734375,0.0,1722223977.7712939
-75.1953125,-39.55078125,-63.96484375,-72.265625,0.0,1722223977.7751155
-122.55859375,-30.2734375,-63.96484375,-106.93359375,0.0,1722223977.778937
-89.35546875,-32.71484375,-62.01171875,-99.609375,0.0,1722223977.7827587
-28.3203125,-35.15625,-57.12890625,-67.3828125,0.0,1722223977.7865803
-28.80859375,-25.390625,-60.05859375,-75.1953125,0.0,1722223977.790402
-89.84375,-25.87890625,-54.19921875,-101.5625,0.0,1722223977.795555
-85.44921875,-32.71484375,-54.19921875,-77.63671875,0.0,1722223977.7993782
-12.6953125,-38.0859375,-66.89453125,-33.203125,0.0,1722223977.8032012
0.48828125,-35.64453125,-46.875,-29.78515625,0.0,1722223977.8070242
-67.87109375,-31.73828125,-34.1796875,-72.75390625,0.0,1722223977.8108475
-89.35546875,-35.15625,-44.921875,-84.47265625,0.0,1722223977.8146706
-25.87890625,-35.15625,-44.921875,-51.7578125,0.0,1722223977.8184936
13.18359375,-31.73828125,-50.78125,-33.203125,0.0,1722223977.8223166
-32.71484375,-30.76171875,-51.7578125,-50.78125,0.0,1722223977.8261397
-83.0078125,-35.15625,-54.19921875,-80.56640625,0.0,1722223977.8299627
-50.78125,-40.52734375,-62.01171875,-72.75390625,0.0,1722223977.8337858
26.85546875,-39.55078125,-42.48046875,-20.01953125,0.0,1722223977.8376088
6.34765625,-32.2265625,-24.90234375,-24.4140625,0.0,1722223977.842683
-67.87109375,-32.71484375,-29.296875,-72.265625,0.0,1722223977.8465073
-49.31640625,-37.59765625,-40.0390625,-71.2890625,0.0,1722223977.8503318
19.53125,-35.64453125,-44.43359375,-38.57421875,0.0,1722223977.8541563
6.34765625,-37.59765625,-44.921875,-39.0625,0.0,1722223977.8579807
-61.03515625,-39.0625,-45.41015625,-72.265625,0.0,1722223977.861805
-68.84765625,-47.8515625,-49.8046875,-74.70703125,0.0,1722223977.8656294
-2.9296875,-51.26953125,-46.875,-31.73828125,0.0,1722223977.869454
30.76171875,-44.43359375,-34.1796875,-6.34765625,0.0,1722223977.8732784
-50.29296875,-47.36328125,-44.43359375,-58.10546875,0.0,1722223977.8771026
-90.8203125,-45.41015625,-47.8515625,-80.56640625,0.0,1722223977.880927
-26.85546875,-40.52734375,-42.96875,-43.9453125,0.0,1722223977.8847516
21.97265625,-39.55078125,-47.36328125,-20.01953125,0.0,1722223977.8897872
-29.78515625,-37.109375,-44.43359375,-44.43359375,0.0,1722223977.8936129
-98.6328125,-41.50390625,-43.9453125,-83.984375,0.0,1722223977.8974385
-69.82421875,-52.24609375,-53.7109375,-69.82421875,0.0,1722223977.9012644
4.39453125,-42.96875,-42.96875,-28.80859375,0.0,1722223977.90509
-19.53125,-44.921875,-35.64453125,-38.0859375,0.0,1722223977.9089158
-89.84375,-57.12890625,-38.0859375,-64.94140625,0.0,1722223977.9127414
-71.2890625,-50.29296875,-37.59765625,-62.01171875,0.0,1722223977.916567
-8.7890625,-47.36328125,-43.9453125,-38.0859375,0.0,1722223977.9203928
-9.765625,-52.24609375,-41.015625,-42.96875,0.0,1722223977.9242184
-82.51953125,-46.875,-32.2265625,-66.89453125,0.0,1722223977.928044
-89.35546875,-41.015625,-25.87890625,-59.5703125,0.0,1722223977.9318697
-31.25,-53.22265625,-33.69140625,-40.0390625,0.0,1722223977.9368064
-6.34765625,-58.59375,-48.828125,-32.71484375,0.0,1722223977.9406333
-55.6640625,-54.19921875,-42.48046875,-53.7109375,0.0,1722223977.9444602
-98.6328125,-55.6640625,-36.1328125,-59.5703125,0.0,1722223977.948287
-52.734375,-59.5703125,-42.96875,-44.921875,0.0,1722223977.9521139
10.25390625,-54.6875,-42.96875,-20.99609375,0.0,1722223977.9559407
-29.78515625,-48.828125,-34.66796875,-33.203125,0.0,1722223977.9597676
-88.8671875,-51.26953125,-30.2734375,-65.4296875,0.0,1722223977.9635944
-75.68359375,-63.4765625,-39.0625,-67.87109375,0.0,1722223977.9674213
0.9765625,-61.03515625,-43.9453125,-39.55078125,0.0,1722223977.9712481
-4.39453125,-48.33984375,-42.48046875,-33.69140625,0.0,1722223977.975075
-83.49609375,-48.828125,-41.015625,-68.84765625,0.0,1722223977.9789019
-87.40234375,-59.08203125,-42.48046875,-77.63671875,0.0,1722223977.98377
-9.27734375,-57.6171875,-44.921875,-33.69140625,0.0,1722223977.9875977
1.953125,-48.828125,-41.9921875,-21.484375,0.0,1722223977.9914258
-91.30859375,-50.29296875,-47.8515625,-61.03515625,0.0,1722223977.9952536
-110.83984375,-50.78125,-39.0625,-74.21875,0.0,1722223977.9990816
-34.1796875,-48.828125,-36.62109375,-40.0390625,0.0,1722223978.0029094
14.16015625,-42.96875,-46.38671875,-9.765625,0.0,1722223978.0067375
-47.8515625,-46.875,-37.109375,-44.921875,0.0,1722223978.0105653
-107.91015625,-49.31640625,-40.52734375,-86.9140625,0.0,1722223978.014393
-66.89453125,-49.8046875,-45.41015625,-59.08203125,0.0,1722223978.0182211
-4.39453125,-48.33984375,-36.62109375,-21.97265625,0.0,1722223978.022049
-39.0625,-44.43359375,-38.57421875,-42.96875,0.0,1722223978.025877
-104.4921875,-43.45703125,-44.921875,-84.47265625,0.0,1722223978.0306916
-85.9375,-46.38671875,-51.26953125,-75.1953125,0.0,1722223978.0345206
-10.25390625,-56.15234375,-52.734375,-32.2265625,0.0,1722223978.0383494
-17.578125,-55.6640625,-37.109375,-46.875,0.0,1722223978.0421784
-96.19140625,-52.24609375,-39.0625,-87.40234375,0.0,1722223978.0460074
-92.7734375,-54.6875,-44.921875,-81.54296875,0.0,1722223978.0498362
-9.765625,-49.8046875,-40.52734375,-35.64453125,0.0,1722223978.0536652
14.6484375,-46.38671875,-39.0625,-19.53125,0.0,1722223978.057494
-70.3125,-51.26953125,-42.48046875,-60.546875,0.0,1722223978.061323
-103.515625,-55.17578125,-58.10546875,-76.171875,0.0,1722223978.065152
-42.48046875,-53.7109375,-69.82421875,-45.41015625,0.0,1722223978.0689807
-10.7421875,-53.7109375,-52.734375,-24.90234375,0.0,1722223978.0728097
-63.96484375,-51.26953125,-33.203125,-52.734375,0.0,1722223978.0775347
-117.67578125,-49.31640625,-38.57421875,-86.9140625,0.0,1722223978.0813646
-75.68359375,-50.29296875,-41.9921875,-71.77734375,0.0,1722223978.0851943
-7.8125,-53.7109375,-41.015625,-33.203125,0.0,1722223978.089024
-35.15625,-50.78125,-39.0625,-41.9921875,0.0,1722223978.092854
-95.21484375,-42.96875,-38.0859375,-67.3828125,0.0,1722223978.0966837
-84.47265625,-53.7109375,-42.96875,-63.4765625,0.0,1722223978.1005137
-24.90234375,-59.08203125,-47.36328125,-49.31640625,0.0,1722223978.1043434
-29.296875,-59.5703125,-48.33984375,-44.43359375,0.0,1722223978.1081734
-88.8671875,-54.19921875,-43.9453125,-62.98828125,0.0,1722223978.112003
-97.65625,-53.22265625,-48.33984375,-78.125,0.0,1722223978.1158328
-45.41015625,-65.4296875,-47.36328125,-51.7578125,0.0,1722223978.1196628
-21.484375,-59.5703125,-37.59765625,-28.3203125,0.0,1722223978.1247988
-75.1953125,-47.36328125,-33.69140625,-60.546875,0.0,1722223978.12863
-105.46875,-52.24609375,-46.875,-84.9609375,0.0,1722223978.132461
-55.17578125,-57.12890625,-41.015625,-50.78125,0.0,1722223978.1362922
-8.30078125,-54.6875,-34.66796875,-35.15625,0.0,1722223978.1401234
-48.33984375,-47.8515625,-40.0390625,-68.359375,0.0,1722223978.1439543
-116.2109375,-48.33984375,-40.52734375,-99.609375,0.0,1722223978.1477854
-77.63671875,-61.5234375,-34.1796875,-78.125,0.0,1722223978.1516166
13.18359375,-52.24609375,-33.69140625,-11.71875,0.0,1722223978.1554477
-17.578125,-41.015625,-42.48046875,-36.62109375,0.0,1722223978.1592789
-100.5859375,-48.33984375,-48.33984375,-89.84375,0.0,1722223978.16311
-85.44921875,-45.41015625,-47.36328125,-76.66015625,0.0,1722223978.1669412
-4.8828125,-45.41015625,-43.45703125,-42.48046875,0.0,1722223978.1720114
4.8828125,-39.55078125,-41.015625,-33.203125,0.0,1722223978.1758437
-70.3125,-35.64453125,-38.0859375,-78.61328125,0.0,1722223978.179676
-88.37890625,-40.52734375,-44.921875,-88.37890625,0.0,1722223978.1835084
-14.6484375,-42.96875,-52.734375,-49.31640625,0.0,1722223978.1873407
14.16015625,-41.015625,-37.59765625,-31.25,0.0,1722223978.191173
-71.2890625,-44.921875,-31.73828125,-61.5234375,0.0,1722223978.1950054
-114.2578125,-52.734375,-36.1328125,-81.54296875,0.0,1722223978.1988378
-48.33984375,-47.8515625,-34.66796875,-47.8515625,0.0,1722223978.20267
4.39453125,-42.48046875,-43.45703125,-20.01953125,0.0,1722223978.2065024
-41.9921875,-43.45703125,-42.96875,-56.15234375,0.0,1722223978.2103348
-95.703125,-42.96875,-30.76171875,-77.63671875,0.0,1722223978.214167
-66.89453125,-44.43359375,-32.2265625,-56.640625,0.0,1722223978.219134
-14.16015625,-47.8515625,-41.9921875,-33.203125,0.0,1722223978.2229676
-20.01953125,-48.33984375,-38.57421875,-19.04296875,0.0,1722223978.2268012
-76.171875,-43.9453125,-24.90234375,-44.921875,0.0,1722223978.2306345
-99.12109375,-39.0625,-32.2265625,-72.75390625,0.0,1722223978.234468
-32.2265625,-40.52734375,-52.24609375,-30.2734375,0.0,1722223978.2383013
-10.7421875,-43.45703125,-62.01171875,-14.6484375,0.0,1722223978.2421348
-96.6796875,-45.41015625,-57.12890625,-72.265625,0.0,1722223978.245968
-104.4921875,-46.875,-41.50390625,-76.66015625,0.0,1722223978.2498016
-30.2734375,-45.41015625,-50.29296875,-47.36328125,0.0,1722223978.2536352
-0.48828125,-43.45703125,-52.734375,-35.64453125,0.0,1722223978.2574685
-53.22265625,-47.36328125,-38.0859375,-44.43359375,0.0,1722223978.261302
-96.19140625,-40.52734375,-40.52734375,-62.5,0.0,1722223978.2661672
-57.6171875,-41.50390625,-45.8984375,-47.8515625,0.0,1722223978.2700016
8.7890625,-42.96875,-38.57421875,-11.71875,0.0,1722223978.2738361
-19.04296875,-37.59765625,-50.78125,-23.92578125,0.0,1722223978.2776706
-82.03125,-38.57421875,-56.640625,-46.875,0.0,1722223978.2815049
-69.82421875,-43.45703125,-44.921875,-40.0390625,0.0,1722223978.2853394
-9.27734375,-44.921875,-41.9921875,-23.4375,0.0,1722223978.2891738
-4.39453125,-40.0390625,-36.1328125,-21.97265625,0.0,1722223978.293008
-78.61328125,-34.1796875,-28.80859375,-53.22265625,0.0,1722223978.2968426
-90.8203125,-36.1328125,-38.0859375,-53.7109375,0.0,1722223978.300677
-39.0625,-54.19921875,-38.57421875,-25.390625,0.0,1722223978.3045115
-20.01953125,-48.828125,-31.25,-14.16015625,0.0,1722223978.3083458
-79.1015625,-34.1796875,-41.9921875,-61.03515625,0.0,1722223978.3131862
-98.6328125,-43.45703125,-38.57421875,-71.77734375,0.0,1722223978.3170216
-39.0625,-45.8984375,-33.69140625,-32.71484375,0.0,1722223978.320857
0.9765625,-42.96875,-31.73828125,-10.7421875,0.0,1722223978.3246925
-47.36328125,-36.62109375,-27.83203125,-43.45703125,0.0,1722223978.3285277
-105.46875,-38.57421875,-33.203125,-87.890625,0.0,1722223978.3323631
-71.2890625,-38.0859375,-38.57421875,-66.40625,0.0,1722223978.3361986
0.0,-29.296875,-36.1328125,-9.765625,0.0,1722223978.3400338
-42.96875,-51.7578125,-54.6875,-50.78125,0.0,1722223978.3438692
-111.328125,-48.828125,-59.08203125,-103.02734375,0.0,1722223978.3477046
-76.171875,-26.3671875,-23.92578125,-58.59375,0.0,1722223978.3515399
5.37109375,-35.15625,-21.484375,-5.37109375,0.0,1722223978.3553753
2.9296875,-40.0390625,-41.50390625,-24.90234375,0.0,1722223978.3601546
-74.21875,-34.66796875,-24.90234375,-57.12890625,0.0,1722223978.3639908
-93.75,-33.203125,-29.296875,-62.01171875,0.0,1722223978.3678272
-45.8984375,-45.8984375,-54.6875,-39.55078125,0.0,1722223978.3716633
0.48828125,-31.25,-25.390625,2.9296875,0.0,1722223978.3754997
-41.015625,-22.94921875,-20.01953125,-14.6484375,0.0,1722223978.3793359
-80.56640625,-25.390625,-38.0859375,-47.8515625,0.0,1722223978.383172
-43.45703125,-32.71484375,-34.66796875,-35.64453125,0.0,1722223978.3870084
0.48828125,-45.41015625,-45.41015625,-5.859375,0.0,1722223978.3908446
-39.55078125,-45.8984375,-45.41015625,-36.1328125,0.0,1722223978.394681
-94.7265625,-39.55078125,-28.3203125,-69.82421875,0.0,1722223978.3985171
-53.7109375,-43.45703125,-45.41015625,-50.78125,0.0,1722223978.4023535
10.7421875,-47.36328125,-63.4765625,-25.390625,0.0,1722223978.407005
-1.46484375,-31.73828125,-40.0390625,-31.25,0.0,1722223978.4108422
-75.68359375,-32.71484375,-39.0625,-67.3828125,0.0,1722223978.414679
-72.265625,-43.9453125,-32.71484375,-55.6640625,0.0,1722223978.4185162
5.859375,-38.57421875,-30.76171875,-20.99609375,0.0,1722223978.422353
-11.23046875,-57.6171875,-41.9921875,-43.45703125,0.0,1722223978.4261901
-79.58984375,-51.26953125,-26.85546875,-60.546875,0.0,1722223978.430027
-92.7734375,-31.73828125,-17.578125,-69.82421875,0.0,1722223978.433864
-43.9453125,-44.43359375,-36.1328125,-61.5234375,0.0,1722223978.4377012
5.37109375,-41.50390625,-38.57421875,-24.4140625,0.0,1722223978.441538
-61.03515625,-45.41015625,-37.59765625,-44.921875,0.0,1722223978.4453752
-113.28125,-66.40625,-53.22265625,-77.63671875,0.0,1722223978.449212
-51.26953125,-53.22265625,-29.296875,-52.734375,0.0,1722223978.4538245
14.6484375,-30.76171875,-23.4375,-17.08984375,0.0,1722223978.4576623
-21.484375,-31.25,-44.43359375,-30.76171875,0.0,1722223978.4615
-92.7734375,-37.59765625,-43.45703125,-68.359375,0.0,1722223978.4653378
-80.078125,-50.29296875,-52.24609375,-71.77734375,0.0,1722223978.4691753
4.8828125,-49.31640625,-40.52734375,-20.5078125,0.0,1722223978.4730132
3.90625,-36.1328125,-19.53125,-19.53125,0.0,1722223978.476851
-102.05078125,-49.31640625,-33.203125,-84.47265625,0.0,1722223978.4806886
-81.54296875,-40.52734375,-33.69140625,-64.453125,0.0,1722223978.4845264
8.30078125,-26.85546875,-23.4375,-4.39453125,0.0,1722223978.488364
0.48828125,-35.15625,-27.83203125,-18.06640625,0.0,1722223978.4922018
-59.08203125,-36.62109375,-41.9921875,-66.89453125,0.0,1722223978.4960394
-80.078125,-32.71484375,-37.109375,-65.4296875,0.0,1722223978.5010605
-45.41015625,-47.36328125,-34.66796875,-40.0390625,0.0,1722223978.5048993
26.85546875,-49.31640625,-42.96875,0.48828125,0.0,1722223978.508738
-20.01953125,-39.55078125,-36.62109375,-8.7890625,0.0,1722223978.5125768
-107.421875,-39.55078125,-31.73828125,-75.1953125,0.0,1722223978.5164156
-62.98828125,-30.2734375,-30.2734375,-61.03515625,0.0,1722223978.5202544
4.8828125,-28.80859375,-42.96875,-20.5078125,0.0,1722223978.5240934
-49.8046875,-39.0625,-59.08203125,-70.3125,0.0,1722223978.5279322
-120.1171875,-34.1796875,-57.12890625,-103.02734375,0.0,1722223978.531771
-70.80078125,-21.484375,-35.64453125,-65.4296875,0.0,1722223978.5356097
-18.06640625,-30.2734375,-45.8984375,-60.546875,0.0,1722223978.5394485
-41.9921875,-31.73828125,-51.7578125,-83.49609375,0.0,1722223978.5432873
-119.62890625,-30.76171875,-36.1328125,-114.2578125,0.0,1722223978.5481722
-120.1171875,-25.87890625,-46.38671875,-103.515625,0.0,1722223978.552012
-29.296875,-21.97265625,-55.17578125,-64.453125,0.0,1722223978.5558517
0.0,-24.4140625,-52.734375,-45.41015625,0.0,1722223978.5596914
-68.84765625,-28.3203125,-36.62109375,-69.3359375,0.0,1722223978.5635312
-107.421875,-30.76171875,-35.64453125,-84.9609375,0.0,1722223978.567371
-46.875,-36.62109375,-60.05859375,-52.734375,0.0,1722223978.5712106
3.90625,-42.96875,-57.6171875,-32.71484375,0.0,1722223978.5750504
-41.9921875,-29.296875,-35.15625,-52.734375,0.0,1722223978.57889
-91.796875,-20.99609375,-34.66796875,-80.078125,0.0,1722223978.5827298
-59.5703125,-25.390625,-51.7578125,-75.1953125,0.0,1722223978.5865695
0.9765625,-32.2265625,-41.015625,-42.48046875,0.0,1722223978.5904093
-18.06640625,-26.3671875,-30.76171875,-41.015625,0.0,1722223978.5952513
-82.51953125,-28.3203125,-42.96875,-81.0546875,0.0,1722223978.599092
-70.3125,-37.109375,-46.875,-76.171875,0.0,1722223978.6029327
-2.44140625,-45.41015625,-54.19921875,-34.66796875,0.0,1722223978.6067731
-25.390625,-43.45703125,-58.59375,-38.0859375,0.0,1722223978.6106138
-93.75,-36.1328125,-50.29296875,-70.80078125,0.0,1722223978.6144545
-100.5859375,-41.015625,-54.6875,-83.0078125,0.0,1722223978.618295
-31.73828125,-42.48046875,-52.24609375,-62.5,0.0,1722223978.6221356
8.7890625,-41.50390625,-35.64453125,-32.71484375,0.0,1722223978.6259763
-79.58984375,-47.36328125,-42.48046875,-71.77734375,0.0,1722223978.629817
-117.67578125,-45.41015625,-51.26953125,-104.98046875,0.0,1722223978.6336575
-41.015625,-36.1328125,-41.9921875,-59.5703125,0.0,1722223978.6374981
13.671875,-41.015625,-51.7578125,-29.78515625,0.0,1722223978.642331
-37.59765625,-36.1328125,-54.6875,-62.5,0.0,1722223978.6461723
-97.16796875,-33.69140625,-41.50390625,-87.890625,0.0,1722223978.650014
-64.94140625,-39.55078125,-43.45703125,-61.03515625,0.0,1722223978.6538553
-2.44140625,-36.1328125,-49.8046875,-29.296875,0.0,1722223978.6576967
-12.6953125,-27.34375,-36.62109375,-34.66796875,0.0,1722223978.6615384
-73.2421875,-38.57421875,-32.2265625,-63.4765625,0.0,1722223978.6653798
-69.82421875,-39.55078125,-41.9921875,-64.453125,0.0,1722223978.6692214
-1.953125,-36.1328125,-47.36328125,-20.99609375,0.0,1722223978.6730628
-1.953125,-42.48046875,-47.8515625,-25.87890625,0.0,1722223978.6769042
-77.1484375,-37.109375,-47.8515625,-68.84765625,0.0,1722223978.6807458
-87.40234375,-39.0625,-48.33984375,-72.75390625,0.0,1722223978.6845872
-22.4609375,-38.0859375,-55.6640625,-40.0390625,0.0,1722223978.689256
5.859375,-31.73828125,-50.29296875,-30.76171875,0.0,1722223978.6930983
-48.33984375,-25.390625,-33.69140625,-64.94140625,0.0,1722223978.6969404
-90.8203125,-25.390625,-32.2265625,-69.3359375,0.0,1722223978.7007825
-46.38671875,-37.109375,-36.1328125,-49.31640625,0.0,1722223978.704625
17.08984375,-33.69140625,-39.55078125,-20.99609375,0.0,1722223978.708467
-20.99609375,-36.62109375,-46.875,-30.2734375,0.0,1722223978.7123094
-70.80078125,-40.0390625,-26.85546875,-54.6875,0.0,1722223978.7161515
-41.015625,-39.0625,-29.296875,-40.52734375,0.0,1722223978.7199936
5.859375,-37.59765625,-48.33984375,-20.01953125,0.0,1722223978.723836
-16.11328125,-32.2265625,-40.52734375,-37.109375,0.0,1722223978.727678
-76.171875,-27.83203125,-28.3203125,-75.1953125,0.0,1722223978.7315202
-74.70703125,-28.3203125,-25.390625,-67.87109375,0.0,1722223978.736124
8.7890625,-27.34375,-30.76171875,-5.859375,0.0,1722223978.7399669
16.6015625,-28.80859375,-40.52734375,-3.41796875,0.0,1722223978.7438097
-73.73046875,-41.9921875,-43.45703125,-62.98828125,0.0,1722223978.7476525
-95.703125,-52.734375,-43.45703125,-87.40234375,0.0,1722223978.7514954
-43.9453125,-52.734375,-46.38671875,-68.359375,0.0,1722223978.7553384
11.71875,-39.55078125,-47.36328125,-34.1796875,0.0,1722223978.7591813
-30.76171875,-35.15625,-40.0390625,-43.9453125,0.0,1722223978.763024
-98.14453125,-43.45703125,-46.875,-82.51953125,0.0,1722223978.766867
-52.734375,-40.0390625,-51.26953125,-50.29296875,0.0,1722223978.7707098
21.484375,-31.73828125,-34.1796875,-5.37109375,0.0,1722223978.7745526
-13.671875,-43.9453125,-33.203125,-33.203125,0.0,1722223978.7783954
-70.3125,-48.828125,-33.69140625,-55.6640625,0.0,1722223978.783015
-53.7109375,-46.875,-34.66796875,-46.38671875,0.0,1722223978.7868586
-4.8828125,-47.36328125,-41.50390625,-41.50390625,0.0,1722223978.790702
-21.484375,-44.43359375,-40.52734375,-57.6171875,0.0,1722223978.7945457
-96.19140625,-45.41015625,-40.0390625,-97.16796875,0.0,1722223978.7983892
-105.46875,-52.24609375,-41.015625,-107.91015625,0.0,1722223978.8022327
-31.73828125,-48.828125,-37.109375,-58.10546875,0.0,1722223978.8060763
-8.30078125,-48.828125,-38.0859375,-55.17578125,0.0,1722223978.8099198
-72.265625,-55.17578125,-40.52734375,-97.65625,0.0,1722223978.8137631
-88.8671875,-48.828125,-29.296875,-88.8671875,0.0,1722223978.8176067
-26.85546875,-39.55078125,-28.3203125,-44.921875,0.0,1722223978.8214502
19.53125,-41.50390625,-31.73828125,-25.87890625,0.0,1722223978.8252938
-32.2265625,-38.57421875,-31.25,-48.33984375,0.0,1722223978.8301706
-91.796875,-39.55078125,-41.50390625,-64.94140625,0.0,1722223978.8340151
-55.17578125,-38.57421875,-39.0625,-43.9453125,0.0,1722223978.8378596
0.0,-42.48046875,-44.921875,-17.08984375,0.0,1722223978.841704
-23.4375,-44.921875,-49.8046875,-40.0390625,0.0,1722223978.8455484
-81.54296875,-30.76171875,-28.80859375,-62.98828125,0.0,1722223978.8493927
-70.80078125,-30.2734375,-19.53125,-55.6640625,0.0,1722223978.8532372
-12.20703125,-42.96875,-36.1328125,-34.1796875,0.0,1722223978.8570814
-10.7421875,-40.52734375,-36.1328125,-39.0625,0.0,1722223978.860926
-81.0546875,-36.1328125,-26.3671875,-79.1015625,0.0,1722223978.8647702
-101.5625,-50.78125,-39.55078125,-85.9375,0.0,1722223978.8686147
-39.55078125,-53.7109375,-47.36328125,-50.78125,0.0,1722223978.872459
-4.8828125,-52.734375,-41.015625,-31.73828125,0.0,1722223978.877279
-63.4765625,-53.22265625,-33.69140625,-49.8046875,0.0,1722223978.8811243
-96.6796875,-46.875,-33.69140625,-73.73046875,0.0,1722223978.8849695
-39.0625,-44.921875,-33.203125,-53.22265625,0.0,1722223978.8888147
8.7890625,-47.8515625,-40.0390625,-21.97265625,0.0,1722223978.89266
-40.52734375,-49.8046875,-46.38671875,-49.31640625,0.0,1722223978.8965049
-101.07421875,-42.48046875,-51.26953125,-90.8203125,0.0,1722223978.90035
-71.77734375,-41.015625,-50.29296875,-75.68359375,0.0,1722223978.9041953
11.23046875,-46.38671875,-42.48046875,-18.06640625,0.0,1722223978.9080405
2.44140625,-42.48046875,-40.52734375,-13.18359375,0.0,1722223978.9118857
-80.078125,-43.9453125,-32.71484375,-71.2890625,0.0,1722223978.915731
-66.89453125,-43.9453125,-23.4375,-73.2421875,0.0,1722223978.9195762
14.6484375,-37.109375,-25.390625,-15.625,0.0,1722223978.9243388
6.8359375,-45.8984375,-37.59765625,-14.6484375,0.0,1722223978.9281847
-83.49609375,-55.17578125,-47.36328125,-70.80078125,0.0,1722223978.9320307
-110.3515625,-49.31640625,-41.50390625,-83.984375,0.0,1722223978.9358766
-34.1796875,-51.26953125,-36.1328125,-39.0625,0.0,1722223978.9397225
10.25390625,-54.19921875,-36.1328125,-20.99609375,0.0,1722223978.9435685
-60.05859375,-50.29296875,-40.52734375,-61.03515625,0.0,1722223978.9474144
-106.4453125,-48.33984375,-42.96875,-79.1015625,0.0,1722223978.9512606
-51.7578125,-48.33984375,-36.62109375,-46.875,0.0,1722223978.9551065
7.32421875,-47.36328125,-36.62109375,-15.625,0.0,1722223978.9589524
-36.62109375,-45.8984375,-43.45703125,-47.36328125,0.0,1722223978.9627984
-101.07421875,-41.015625,-37.59765625,-81.54296875,0.0,1722223978.9666443
-67.87109375,-40.0390625,-36.62109375,-65.91796875,0.0,1722223978.971371
4.8828125,-43.9453125,-43.9453125,-34.66796875,0.0,1722223978.9752176
0.48828125,-40.52734375,-48.33984375,-34.1796875,0.0,1722223978.9790642
-64.94140625,-34.1796875,-48.33984375,-62.5,0.0,1722223978.9829109
-74.21875,-35.15625,-36.62109375,-58.59375,0.0,1722223978.9867575
-11.23046875,-39.0625,-36.1328125,-28.3203125,0.0,1722223978.9906042
3.41796875,-39.55078125,-45.41015625,-39.55078125,0.0,1722223978.9944508
-65.91796875,-39.55078125,-42.96875,-78.125,0.0,1722223978.9982977
-92.7734375,-42.96875,-42.48046875,-76.66015625,0.0,1722223979.0021443
-38.57421875,-43.9453125,-41.50390625,-47.8515625,0.0,1722223979.005991
12.20703125,-44.43359375,-37.109375,-27.83203125,0.0,1722223979.0098376
-34.66796875,-44.43359375,-36.62109375,-47.36328125,0.0,1722223979.0136843
-81.54296875,-32.2265625,-42.96875,-69.3359375,0.0,1722223979.0183375
-46.875,-33.203125,-46.875,-52.734375,0.0,1722223979.0221848
-0.48828125,-52.24609375,-45.41015625,-20.99609375,0.0,1722223979.0260322
-21.484375,-46.875,-43.9453125,-36.1328125,0.0,1722223979.0298796
-75.68359375,-41.015625,-41.50390625,-78.125,0.0,1722223979.033727
-62.5,-40.0390625,-41.015625,-67.3828125,0.0,1722223979.0375743
-4.8828125,-42.96875,-42.48046875,-26.3671875,0.0,1722223979.0414217
3.90625,-46.875,-38.0859375,-16.11328125,0.0,1722223979.0452688
-62.01171875,-39.55078125,-33.69140625,-49.8046875,0.0,1722223979.0491161
-95.21484375,-45.41015625,-39.0625,-70.80078125,0.0,1722223979.0529635
-22.94921875,-53.7109375,-45.41015625,-41.9921875,0.0,1722223979.0568109
18.06640625,-52.734375,-34.66796875,-19.53125,0.0,1722223979.0606582
-51.7578125,-46.38671875,-27.83203125,-59.5703125,0.0,1722223979.065326
-88.37890625,-42.96875,-39.55078125,-79.58984375,0.0,1722223979.0691738
-32.71484375,-36.62109375,-53.22265625,-44.43359375,0.0,1722223979.073022
21.484375,-32.2265625,-40.0390625,-20.99609375,0.0,1722223979.07687
-20.01953125,-33.203125,-25.390625,-45.8984375,0.0,1722223979.0807178
-91.796875,-42.48046875,-30.76171875,-81.54296875,0.0,1722223979.0845659
-60.546875,-41.50390625,-38.0859375,-61.03515625,0.0,1722223979.088414
3.90625,-34.1796875,-47.8515625,-20.5078125,0.0,1722223979.0922618
-36.62109375,-43.9453125,-37.59765625,-44.921875,0.0,1722223979.0961099
-102.05078125,-48.828125,-22.94921875,-87.40234375,0.0,1722223979.099958
-93.26171875,-45.41015625,-31.25,-62.98828125,0.0,1722223979.1038058
-20.01953125,-44.921875,-35.15625,-24.90234375,0.0,1722223979.1076539
0.0,-43.9453125,-33.69140625,-32.71484375,0.0,1722223979.1122255
-80.078125,-40.52734375,-29.296875,-65.91796875,0.0,1722223979.116074
-108.3984375,-45.41015625,-32.71484375,-71.2890625,0.0,1722223979.1199229
-45.41015625,-48.828125,-40.0390625,-37.59765625,0.0,1722223979.1237714
8.30078125,-40.0390625,-41.015625,-7.8125,0.0,1722223979.12762
-51.7578125,-38.0859375,-41.9921875,-42.48046875,0.0,1722223979.1314685
-104.4921875,-42.48046875,-40.52734375,-72.75390625,0.0,1722223979.135317
-48.828125,-42.96875,-46.38671875,-33.69140625,0.0,1722223979.1391656
-0.48828125,-48.828125,-56.640625,-11.71875,0.0,1722223979.1430142
-34.1796875,-37.59765625,-49.8046875,-40.52734375,0.0,1722223979.1468627
-92.7734375,-38.0859375,-31.73828125,-73.73046875,0.0,1722223979.1507113
-78.61328125,-57.12890625,-35.64453125,-78.61328125,0.0,1722223979.1545599
3.90625,-49.8046875,-36.62109375,-29.296875,0.0,1722223979.1590579
-13.671875,-52.24609375,-45.41015625,-32.71484375,0.0,1722223979.162907
-88.8671875,-53.7109375,-39.0625,-71.77734375,0.0,1722223979.166756
-62.5,-29.78515625,-20.5078125,-59.08203125,0.0,1722223979.170605
0.0,-38.57421875,-35.64453125,-23.92578125,0.0,1722223979.1744542
21.484375,-41.50390625,-45.8984375,-11.71875,0.0,1722223979.1783032
-46.875,-42.48046875,-40.0390625,-54.19921875,0.0,1722223979.1821523
-98.14453125,-53.22265625,-34.1796875,-87.890625,0.0,1722223979.1860013
-52.24609375,-58.10546875,-52.734375,-67.3828125,0.0,1722223979.1898503
6.34765625,-39.55078125,-49.8046875,-27.83203125,0.0,1722223979.1936996
-30.76171875,-18.06640625,-31.25,-44.43359375,0.0,1722223979.1975486
-83.49609375,-35.15625,-27.34375,-79.1015625,0.0,1722223979.2013977
-46.875,-41.9921875,-31.25,-53.7109375,0.0,1722223979.2058926
-7.8125,-56.15234375,-47.36328125,-32.71484375,0.0,1722223979.2097423
-33.203125,-52.24609375,-37.59765625,-40.52734375,0.0,1722223979.2135918
-78.125,-32.71484375,-17.578125,-51.7578125,0.0,1722223979.2174413
-74.70703125,-37.59765625,-48.33984375,-64.453125,0.0,1722223979.221291
-9.765625,-46.38671875,-43.45703125,-27.34375,0.0,1722223979.2251406
-1.953125,-50.29296875,-34.1796875,-15.13671875,0.0,1722223979.22899
-73.2421875,-53.22265625,-39.0625,-52.734375,0.0,1722223979.2328396
-88.8671875,-43.9453125,-31.25,-62.01171875,0.0,1722223979.2366893
-28.3203125,-37.109375,-39.0625,-41.9921875,0.0,1722223979.2405388
-5.859375,-49.31640625,-65.4296875,-38.0859375,0.0,1722223979.2443883
-46.875,-32.71484375,-42.96875,-46.875,0.0,1722223979.248238
-61.03515625,-18.5546875,-25.87890625,-41.9921875,0.0,1722223979.2530847
-14.16015625,-33.203125,-38.0859375,-14.6484375,0.0,1722223979.2569351
23.4375,-43.9453125,-40.52734375,2.44140625,0.0,1722223979.2607853
-38.57421875,-39.0625,-44.921875,-37.59765625,0.0,1722223979.2646358
-100.09765625,-33.203125,-52.24609375,-86.9140625,0.0,1722223979.2684863
-52.734375,-24.90234375,-39.55078125,-41.50390625,0.0,1722223979.2723365
14.6484375,-26.85546875,-25.87890625,3.90625,0.0,1722223979.276187
-17.08984375,-37.59765625,-39.0625,-43.9453125,0.0,1722223979.2800372
-71.2890625,-33.69140625,-44.921875,-66.89453125,0.0,1722223979.2838876
-44.43359375,-36.62109375,-32.2265625,-32.2265625,0.0,1722223979.2877378
28.80859375,-35.64453125,-34.1796875,13.18359375,0.0,1722223979.2915883
20.01953125,-25.87890625,-41.50390625,-5.859375,0.0,1722223979.2954385
-83.0078125,-32.71484375,-32.2265625,-73.73046875,0.0,1722223979.3001516
-86.9140625,-42.48046875,-25.87890625,-55.17578125,0.0,1722223979.3040028
-2.9296875,-41.9921875,-47.8515625,-11.23046875,0.0,1722223979.3078537
5.37109375,-49.31640625,-69.3359375,-24.90234375,0.0,1722223979.3117046
-48.828125,-30.76171875,-39.55078125,-30.76171875,0.0,1722223979.3155556
-76.171875,-25.390625,-23.4375,-41.50390625,0.0,1722223979.3194067
-33.203125,-39.0625,-35.15625,-34.1796875,0.0,1722223979.3232577
0.9765625,-43.45703125,-43.9453125,-23.4375,0.0,1722223979.3271086
-42.96875,-41.50390625,-42.48046875,-57.12890625,0.0,1722223979.3309598
-76.171875,-38.0859375,-34.66796875,-65.91796875,0.0,1722223979.3348107
-53.22265625,-42.96875,-45.41015625,-42.96875,0.0,1722223979.3386617
0.0,-43.9453125,-50.78125,-17.578125,0.0,1722223979.3425126
-6.34765625,-37.59765625,-42.48046875,-16.11328125,0.0,1722223979.3472095
-70.3125,-33.203125,-45.41015625,-48.828125,0.0,1722223979.351061
-66.89453125,-36.62109375,-48.828125,-55.17578125,0.0,1722223979.3549128
12.20703125,-38.57421875,-45.8984375,-6.8359375,0.0,1722223979.3587644
24.90234375,-32.71484375,-41.9921875,6.34765625,0.0,1722223979.362616
-41.9921875,-28.80859375,-32.2265625,-37.59765625,0.0,1722223979.3664677
-66.40625,-39.0625,-38.57421875,-48.828125,0.0,1722223979.3703194
-6.34765625,-41.9921875,-42.96875,-12.20703125,0.0,1722223979.374171
38.57421875,-35.15625,-35.64453125,0.0,0.0,1722223979.3780227
-43.9453125,-34.1796875,-50.29296875,-59.08203125,0.0,1722223979.3818743
-91.796875,-32.2265625,-57.12890625,-91.30859375,0.0,1722223979.385726
-18.5546875,-29.78515625,-41.50390625,-33.203125,0.0,1722223979.3895776
35.64453125,-34.66796875,-27.34375,12.20703125,0.0,1722223979.3941975
-30.2734375,-42.48046875,-41.015625,-41.50390625,0.0,1722223979.3980496
-102.5390625,-47.36328125,-48.33984375,-89.35546875,0.0,1722223979.401902
-76.171875,-45.8984375,-41.9921875,-65.91796875,0.0,1722223979.405754
-11.23046875,-48.33984375,-43.45703125,-30.76171875,0.0,1722223979.4096062
-29.78515625,-45.8984375,-42.48046875,-46.875,0.0,1722223979.4134586
-105.95703125,-43.45703125,-38.57421875,-83.49609375,0.0,1722223979.4173107
-103.515625,-43.45703125,-46.875,-78.125,0.0,1722223979.421163
-21.484375,-44.43359375,-58.10546875,-27.34375,0.0,1722223979.4250152
4.8828125,-37.109375,-53.7109375,-8.7890625,0.0,1722223979.4288673
-88.37890625,-38.0859375,-33.203125,-61.5234375,0.0,1722223979.4327197
-125.48828125,-42.96875,-28.3203125,-70.80078125,0.0,1722223979.4365718
-75.68359375,-44.43359375,-46.38671875,-46.38671875,0.0,1722223979.4411411
-42.48046875,-49.31640625,-52.734375,-37.59765625,0.0,1722223979.444994
-74.70703125,-48.828125,-33.69140625,-34.66796875,0.0,1722223979.4488466
-119.62890625,-42.48046875,-21.484375,-61.03515625,0.0,1722223979.4526994
-87.40234375,-43.45703125,-30.76171875,-51.7578125,0.0,1722223979.4565523
-9.765625,-47.36328125,-41.9921875,2.9296875,0.0,1722223979.4604049
-33.69140625,-37.59765625,-35.15625,-24.90234375,0.0,1722223979.4642577
-95.703125,-31.25,-31.73828125,-51.7578125,0.0,1722223979.4681106
-88.8671875,-49.31640625,-44.921875,-31.73828125,0.0,1722223979.4719632
-54.6875,-59.08203125,-54.6875,-29.78515625,0.0,1722223979.475816
-67.87109375,-50.78125,-56.640625,-49.31640625,0.0,1722223979.4796686
-111.328125,-42.48046875,-42.48046875,-65.4296875,0.0,1722223979.4835215
-105.95703125,-48.828125,-31.25,-65.4296875,0.0,1722223979.4880462
-47.8515625,-50.29296875,-29.296875,-40.0390625,0.0,1722223979.4918995
-34.66796875,-40.52734375,-34.1796875,-38.57421875,0.0,1722223979.4957528
-91.796875,-37.109375,-38.57421875,-74.70703125,0.0,1722223979.4996061
-121.58203125,-51.26953125,-42.48046875,-83.984375,0.0,1722223979.5034592
-61.5234375,-59.5703125,-49.8046875,-52.734375,0.0,1722223979.5073125
-6.8359375,-52.24609375,-41.9921875,-29.296875,0.0,1722223979.5111659
-57.6171875,-53.7109375,-35.64453125,-48.828125,0.0,1722223979.515019
-120.60546875,-60.546875,-48.33984375,-76.171875,0.0,1722223979.5188723
-101.5625,-65.4296875,-55.17578125,-72.75390625,0.0,1722223979.5227256
-27.83203125,-63.96484375,-55.6640625,-22.94921875,0.0,1722223979.526579
-45.41015625,-52.24609375,-40.52734375,-30.2734375,0.0,1722223979.530432
-122.55859375,-46.38671875,-30.2734375,-76.171875,0.0,1722223979.5349212
-100.5859375,-45.41015625,-46.875,-74.21875,0.0,1722223979.5387747
-29.78515625,-49.31640625,-55.17578125,-34.1796875,0.0,1722223979.5426285
-46.875,-52.734375,-46.38671875,-42.96875,0.0,1722223979.5464823
-118.65234375,-50.29296875,-43.9453125,-78.61328125,0.0,1722223979.550336
-117.1875,-46.875,-41.015625,-61.5234375,0.0,1722223979.5541897
-44.43359375,-42.48046875,-37.59765625,-21.484375,0.0,1722223979.5580435
-31.73828125,-53.7109375,-47.8515625,-33.203125,0.0,1722223979.561897
-92.7734375,-51.7578125,-46.38671875,-60.546875,0.0,1722223979.5657508
-100.5859375,-41.50390625,-38.57421875,-57.6171875,0.0,1722223979.5696046
-30.76171875,-39.55078125,-44.921875,-34.66796875,0.0,1722223979.5734582
17.578125,-42.96875,-59.08203125,-11.71875,0.0,1722223979.577312
-44.921875,-50.29296875,-37.59765625,-35.64453125,0.0,1722223979.581746
-100.5859375,-50.78125,-23.92578125,-62.5,0.0,1722223979.5856001
-57.6171875,-56.15234375,-35.64453125,-48.33984375,0.0,1722223979.5894542
-6.34765625,-56.640625,-37.59765625,-12.20703125,0.0,1722223979.5933084
-21.97265625,-47.36328125,-36.62109375,-12.6953125,0.0,1722223979.5971625
-80.078125,-38.0859375,-25.390625,-41.50390625,0.0,1722223979.6010168
-75.1953125,-44.43359375,-24.4140625,-39.55078125,0.0,1722223979.6048708
-16.11328125,-57.6171875,-46.875,-23.4375,0.0,1722223979.608725
-19.53125,-50.78125,-48.828125,-24.4140625,0.0,1722223979.612579
-88.8671875,-42.48046875,-23.92578125,-58.10546875,0.0,1722223979.6164331
-112.79296875,-53.22265625,-34.1796875,-75.68359375,0.0,1722223979.6202874
-47.8515625,-62.98828125,-52.24609375,-47.36328125,0.0,1722223979.6241415
-2.9296875,-58.10546875,-44.43359375,-12.6953125,0.0,1722223979.628832
-68.84765625,-46.38671875,-36.62109375,-45.8984375,0.0,1722223979.6326869
-106.4453125,-41.015625,-28.3203125,-64.453125,0.0,1722223979.6365416
-54.19921875,-45.8984375,-32.2265625,-32.71484375,0.0,1722223979.6403964
-16.6015625,-58.59375,-46.875,-24.4140625,0.0,1722223979.644251
-48.33984375,-51.7578125,-36.1328125,-43.45703125,0.0,1722223979.6481059
-109.86328125,-44.43359375,-36.1328125,-71.77734375,0.0,1722223979.6519606
-91.30859375,-52.24609375,-53.7109375,-69.82421875,0.0,1722223979.6558154
-19.04296875,-50.29296875,-44.921875,-27.34375,0.0,1722223979.65967
-25.87890625,-34.1796875,-38.0859375,-31.25,0.0,1722223979.6635249
-85.44921875,-36.1328125,-43.9453125,-73.2421875,0.0,1722223979.6673794
-70.80078125,-40.0390625,-36.62109375,-62.01171875,0.0,1722223979.6712341
-13.671875,-40.52734375,-34.1796875,-24.90234375,0.0,1722223979.675936
-5.859375,-40.52734375,-31.25,-16.11328125,0.0,1722223979.6797912
-67.87109375,-38.0859375,-32.71484375,-45.41015625,0.0,1722223979.6836467
-96.6796875,-46.875,-36.62109375,-66.40625,0.0,1722223979.687502
-40.0390625,-51.26953125,-33.203125,-37.59765625,0.0,1722223979.6913574
0.9765625,-49.8046875,-36.1328125,-1.46484375,0.0,1722223979.6952126
-52.734375,-50.78125,-44.43359375,-17.578125,0.0,1722223979.699068
-97.16796875,-52.24609375,-43.45703125,-51.26953125,0.0,1722223979.7029233
-38.0859375,-50.29296875,-33.69140625,-29.78515625,0.0,1722223979.7067788
15.13671875,-57.12890625,-37.109375,-6.34765625,0.0,1722223979.710634
-31.25,-61.03515625,-40.0390625,-30.76171875,0.0,1722223979.7144895
-85.9375,-44.43359375,-40.52734375,-55.17578125,0.0,1722223979.7183447
-60.546875,-38.57421875,-35.64453125,-41.015625,0.0,1722223979.722939
5.37109375,-43.9453125,-33.203125,-14.6484375,0.0,1722223979.726795
-8.30078125,-41.015625,-34.1796875,-23.92578125,0.0,1722223979.730651
-74.70703125,-28.3203125,-31.25,-58.59375,0.0,1722223979.7345066
-74.70703125,-29.78515625,-37.109375,-56.640625,0.0,1722223979.7383626
-15.625,-42.48046875,-40.0390625,-24.90234375,0.0,1722223979.7422185
3.41796875,-44.43359375,-40.52734375,-32.71484375,0.0,1722223979.7460742
-53.7109375,-36.62109375,-40.0390625,-73.2421875,0.0,1722223979.7499301
-78.61328125,-36.62109375,-42.48046875,-63.4765625,0.0,1722223979.753786
-25.390625,-49.8046875,-48.828125,-33.69140625,0.0,1722223979.7576418
13.18359375,-41.50390625,-34.1796875,-22.94921875,0.0,1722223979.7614977
-36.62109375,-30.2734375,-19.04296875,-42.96875,0.0,1722223979.7653537
-94.23828125,-43.45703125,-37.109375,-70.3125,0.0,1722223979.7699072
-57.6171875,-56.15234375,-49.8046875,-52.24609375,0.0,1722223979.7737637
14.16015625,-43.45703125,-40.52734375,-21.97265625,0.0,1722223979.77762
-22.94921875,-33.69140625,-37.59765625,-47.8515625,0.0,1722223979.7814763
-91.796875,-41.015625,-40.0390625,-78.61328125,0.0,1722223979.7853327
-83.49609375,-50.78125,-44.43359375,-58.10546875,0.0,1722223979.789189
-20.99609375,-49.8046875,-53.7109375,-30.2734375,0.0,1722223979.7930455
-7.8125,-41.9921875,-45.41015625,-32.71484375,0.0,1722223979.7969017
-78.125,-43.9453125,-30.2734375,-61.5234375,0.0,1722223979.8007581
-101.5625,-54.19921875,-39.55078125,-70.80078125,0.0,1722223979.8046145
-39.55078125,-55.17578125,-47.8515625,-34.66796875,0.0,1722223979.8084707
-12.6953125,-47.36328125,-39.0625,-23.4375,0.0,1722223979.8123271
-71.77734375,-45.8984375,-37.109375,-61.03515625,0.0,1722223979.8167999
-95.703125,-45.8984375,-45.8984375,-76.171875,0.0,1722223979.8206568
-41.9921875,-41.9921875,-45.8984375,-44.43359375,0.0,1722223979.8245134
9.765625,-45.8984375,-37.59765625,-29.78515625,0.0,1722223979.8283703
-46.875,-48.33984375,-37.59765625,-64.453125,0.0,1722223979.832227
-106.93359375,-46.875,-43.9453125,-75.68359375,0.0,1722223979.836084
-66.89453125,-50.29296875,-40.52734375,-48.33984375,0.0,1722223979.8399405
3.41796875,-42.96875,-32.71484375,-21.97265625,0.0,1722223979.8437974
-33.69140625,-41.50390625,-38.0859375,-41.50390625,0.0,1722223979.847654
-119.140625,-53.22265625,-46.38671875,-78.61328125,0.0,1722223979.851511
-97.16796875,-51.26953125,-43.9453125,-67.3828125,0.0,1722223979.8553677
-26.3671875,-42.96875,-42.96875,-28.80859375,0.0,1722223979.8592246
-34.66796875,-48.33984375,-42.96875,-23.92578125,0.0,1722223979.863647
-104.00390625,-43.45703125,-42.48046875,-69.3359375,0.0,1722223979.8675041
-113.28125,-43.45703125,-42.96875,-71.77734375,0.0,1722223979.8713613
-50.29296875,-53.22265625,-41.9921875,-33.203125,0.0,1722223979.8752186
-0.9765625,-44.43359375,-43.9453125,-16.6015625,0.0,1722223979.8790758
-55.6640625,-37.109375,-33.203125,-51.26953125,0.0,1722223979.882933
-105.46875,-35.64453125,-31.73828125,-79.58984375,0.0,1722223979.88679
-56.640625,-40.52734375,-44.921875,-54.6875,0.0,1722223979.8906472
-6.8359375,-46.38671875,-51.7578125,-32.2265625,0.0,1722223979.8945043
-49.31640625,-49.8046875,-41.9921875,-56.640625,0.0,1722223979.8983614
-101.07421875,-49.8046875,-27.34375,-67.87109375,0.0,1722223979.9022188
-61.5234375,-44.921875,-36.62109375,-36.1328125,0.0,1722223979.906076
-5.859375,-37.109375,-50.78125,-26.3671875,0.0,1722223979.9104536
-38.0859375,-34.1796875,-47.36328125,-54.19921875,0.0,1722223979.914311
-97.65625,-37.109375,-42.96875,-73.73046875,0.0,1722223979.9181685
-91.796875,-37.109375,-48.33984375,-70.80078125,0.0,1722223979.9220262
-33.69140625,-35.15625,-48.33984375,-34.1796875,0.0,1722223979.9258835
-7.8125,-28.3203125,-35.64453125,-25.390625,0.0,1722223979.9297411
-72.75390625,-32.71484375,-29.296875,-64.453125,0.0,1722223979.9335988
-116.2109375,-55.17578125,-43.45703125,-86.42578125,0.0,1722223979.9374561
-61.5234375,-57.6171875,-52.734375,-61.03515625,0.0,1722223979.9413137
0.9765625,-37.59765625,-43.45703125,-26.85546875,0.0,1722223979.945171
-51.7578125,-31.73828125,-33.69140625,-49.31640625,0.0,1722223979.9490287
-105.46875,-40.52734375,-39.55078125,-77.1484375,0.0,1722223979.9528863
-57.6171875,-42.48046875,-43.45703125,-48.33984375,0.0,1722223979.9572356
5.37109375,-37.109375,-39.55078125,-13.18359375,0.0,1722223979.9610934
-34.1796875,-44.921875,-41.015625,-38.0859375,0.0,1722223979.9649513
-97.65625,-47.36328125,-40.52734375,-69.82421875,0.0,1722223979.9688091
-66.89453125,-42.96875,-36.62109375,-46.875,0.0,1722223979.972667
-7.32421875,-47.8515625,-34.66796875,-11.23046875,0.0,1722223979.976525
-18.06640625,-47.36328125,-34.1796875,-29.78515625,0.0,1722223979.980383
-91.30859375,-47.8515625,-40.0390625,-76.66015625,0.0,1722223979.9842408
-90.8203125,-41.015625,-38.0859375,-69.82421875,0.0,1722223979.9880986
-22.94921875,-38.0859375,-40.0390625,-24.90234375,0.0,1722223979.9919565
-2.44140625,-44.921875,-42.48046875,-13.671875,0.0,1722223979.9958143
-59.5703125,-44.43359375,-28.3203125,-48.828125,0.0,1722223979.9996722
-85.44921875,-38.57421875,-21.484375,-69.82421875,0.0,1722223980.004351
-43.9453125,-40.0390625,-32.71484375,-40.0390625,0.0,1722223980.0082092
5.37109375,-40.0390625,-42.48046875,-17.578125,0.0,1722223980.0120678
-34.1796875,-40.52734375,-35.64453125,-48.33984375,0.0,1722223980.0159261
-97.65625,-42.48046875,-44.43359375,-81.0546875,0.0,1722223980.0197845
-60.05859375,-37.109375,-42.96875,-57.6171875,0.0,1722223980.023643
-4.39453125,-42.48046875,-47.36328125,-31.73828125,0.0,1722223980.0275013
-39.0625,-45.41015625,-50.29296875,-55.17578125,0.0,1722223980.0313597
-88.8671875,-39.55078125,-47.36328125,-83.0078125,0.0,1722223980.0352182
-67.87109375,-39.55078125,-41.015625,-60.546875,0.0,1722223980.0390766
-14.16015625,-40.52734375,-44.43359375,-29.296875,0.0,1722223980.042935
-18.5546875,-36.62109375,-48.33984375,-34.66796875,0.0,1722223980.0467935
-83.0078125,-36.62109375,-42.48046875,-64.94140625,0.0,1722223980.0514011
-85.9375,-33.203125,-43.9453125,-73.73046875,0.0,1722223980.05526
-24.90234375,-28.80859375,-44.921875,-41.015625,0.0,1722223980.059119
-11.23046875,-38.0859375,-49.31640625,-28.3203125,0.0,1722223980.0629778
-79.1015625,-47.8515625,-49.8046875,-75.68359375,0.0,1722223980.0668368
-113.28125,-50.29296875,-49.31640625,-85.9375,0.0,1722223980.0706956
-65.91796875,-56.640625,-53.22265625,-51.26953125,0.0,1722223980.0745547
-15.13671875,-52.24609375,-47.8515625,-37.109375,0.0,1722223980.0784135
-50.29296875,-38.57421875,-35.15625,-52.734375,0.0,1722223980.0822725
-105.46875,-33.69140625,-33.69140625,-75.1953125,0.0,1722223980.0861313
-86.42578125,-41.50390625,-36.1328125,-74.21875,0.0,1722223980.0899901
-28.80859375,-46.38671875,-32.71484375,-43.9453125,0.0,1722223980.0938492
-44.43359375,-43.9453125,-34.1796875,-47.36328125,0.0,1722223980.0984225
-109.375,-48.33984375,-33.203125,-76.66015625,0.0,1722223980.102282
-101.5625,-50.29296875,-39.0625,-68.84765625,0.0,1722223980.1061413
-35.64453125,-45.41015625,-41.015625,-28.3203125,0.0,1722223980.1100006
-30.2734375,-46.38671875,-40.52734375,-19.04296875,0.0,1722223980.1138601
-94.7265625,-46.875,-35.15625,-60.546875,0.0,1722223980.1177194
-112.79296875,-43.9453125,-24.90234375,-73.2421875,0.0,1722223980.121579
-42.96875,-36.62109375,-27.34375,-35.64453125,0.0,1722223980.1254382
5.859375,-35.64453125,-27.83203125,-17.08984375,0.0,1722223980.1292977
-70.80078125,-45.8984375,-45.41015625,-62.01171875,0.0,1722223980.133157
-122.55859375,-46.875,-53.7109375,-77.63671875,0.0,1722223980.1370163
-66.40625,-41.9921875,-36.62109375,-37.109375,0.0,1722223980.1408758
-25.87890625,-53.22265625,-39.0625,-31.73828125,0.0,1722223980.1453905
-59.5703125,-51.26953125,-46.38671875,-64.453125,0.0,1722223980.1492503
-105.46875,-29.78515625,-35.64453125,-82.03125,0.0,1722223980.15311
-78.125,-32.2265625,-31.73828125,-59.5703125,0.0,1722223980.1569698
-18.06640625,-40.52734375,-47.8515625,-31.73828125,0.0,1722223980.1608298
-30.2734375,-34.1796875,-47.36328125,-50.29296875,0.0,1722223980.1646895
-90.8203125,-37.109375,-43.45703125,-86.9140625,0.0,1722223980.1685493
-92.7734375,-42.48046875,-50.29296875,-80.078125,0.0,1722223980.172409
-35.64453125,-45.8984375,-55.17578125,-46.875,0.0,1722223980.176269
-25.87890625,-48.33984375,-53.22265625,-40.0390625,0.0,1722223980.1801288
-83.984375,-39.55078125,-42.48046875,-71.77734375,0.0,1722223980.1839886
-106.4453125,-41.015625,-42.48046875,-83.49609375,0.0,1722223980.1878483
-44.921875,-46.38671875,-46.38671875,-43.45703125,0.0,1722223980.1923015
-3.90625,-42.96875,-48.828125,-20.01953125,0.0,1722223980.1961617
-52.734375,-29.296875,-42.96875,-62.01171875,0.0,1722223980.200022
-101.5625,-35.64453125,-37.59765625,-81.0546875,0.0,1722223980.2038822
-68.359375,-49.31640625,-45.8984375,-66.89453125,0.0,1722223980.2077425
-8.30078125,-36.1328125,-40.52734375,-37.59765625,0.0,1722223980.2116027
-42.96875,-28.80859375,-33.203125,-47.8515625,0.0,1722223980.2154627
-102.5390625,-29.296875,-32.2265625,-76.171875,0.0,1722223980.219323
-82.03125,-26.85546875,-36.1328125,-66.89453125,0.0,1722223980.2231832
-19.53125,-34.1796875,-46.875,-26.3671875,0.0,1722223980.2270434
-29.296875,-43.45703125,-41.9921875,-26.85546875,0.0,1722223980.2309036
-99.12109375,-42.96875,-34.66796875,-68.359375,0.0,1722223980.2347639
-99.12109375,-38.0859375,-44.921875,-68.359375,0.0,1722223980.2391343
-34.1796875,-36.62109375,-46.875,-33.203125,0.0,1722223980.2429948
-2.44140625,-34.1796875,-41.9921875,-21.484375,0.0,1722223980.2468553
-63.96484375,-34.1796875,-49.31640625,-64.453125,0.0,1722223980.250716
-102.5390625,-30.2734375,-50.78125,-76.66015625,0.0,1722223980.2545764
-47.36328125,-25.87890625,-57.6171875,-41.50390625,0.0,1722223980.258437
-0.9765625,-29.78515625,-58.10546875,-22.94921875,0.0,1722223980.2622974
-47.8515625,-32.2265625,-33.203125,-41.50390625,0.0,1722223980.266158
-98.6328125,-36.62109375,-27.34375,-65.4296875,0.0,1722223980.2700186
-54.6875,-34.66796875,-32.71484375,-50.29296875,0.0,1722223980.273879
5.37109375,-25.87890625,-38.0859375,-30.76171875,0.0,1722223980.2777395
-22.94921875,-25.87890625,-41.9921875,-44.43359375,0.0,1722223980.2816
-94.23828125,-38.0859375,-41.50390625,-75.68359375,0.0,1722223980.2859597
-81.54296875,-37.109375,-42.96875,-70.80078125,0.0,1722223980.2898207
-10.25390625,-35.64453125,-40.0390625,-30.76171875,0.0,1722223980.2936814
-12.20703125,-38.57421875,-41.9921875,-32.2265625,0.0,1722223980.2975423
-83.0078125,-37.109375,-44.43359375,-66.89453125,0.0,1722223980.301403
-97.65625,-37.59765625,-40.52734375,-68.359375,0.0,1722223980.305264
-28.3203125,-28.3203125,-39.0625,-31.25,0.0,1722223980.3091247
-6.34765625,-32.2265625,-47.36328125,-30.76171875,0.0,1722223980.3129857
-76.171875,-42.96875,-47.8515625,-71.2890625,0.0,1722223980.3168466
-93.75,-41.50390625,-46.38671875,-75.68359375,0.0,1722223980.3207073
-41.015625,-35.64453125,-53.7109375,-47.36328125,0.0,1722223980.3245683
12.6953125,-34.1796875,-55.6640625,-27.34375,0.0,1722223980.328429
-29.78515625,-36.62109375,-49.8046875,-47.8515625,0.0,1722223980.3327258
-98.14453125,-39.55078125,-45.8984375,-72.75390625,0.0,1722223980.3365867
-69.82421875,-41.9921875,-45.8984375,-53.22265625,0.0,1722223980.340448
6.8359375,-40.0390625,-41.9921875,-19.53125,0.0,1722223980.344309
2.44140625,-41.50390625,-38.57421875,-28.80859375,0.0,1722223980.34817
-95.21484375,-48.33984375,-45.8984375,-69.3359375,0.0,1722223980.3520312
-105.46875,-46.38671875,-53.22265625,-68.84765625,0.0,1722223980.3558924
-24.90234375,-49.31640625,-56.640625,-47.36328125,0.0,1722223980.3597536
-19.53125,-49.31640625,-56.15234375,-42.48046875,0.0,1722223980.3636146
-83.0078125,-52.734375,-47.8515625,-62.01171875,0.0,1722223980.3674757
-100.09765625,-56.640625,-42.48046875,-78.61328125,0.0,1722223980.371337
-41.50390625,-45.41015625,-57.12890625,-53.7109375,0.0,1722223980.3751981
2.44140625,-36.62109375,-55.17578125,-30.76171875,0.0,1722223980.379768
-55.6640625,-41.50390625,-40.0390625,-62.5,0.0,1722223980.3836293
-95.703125,-45.41015625,-45.8984375,-71.2890625,0.0,1722223980.387491
-54.6875,-47.8515625,-57.6171875,-40.0390625,0.0,1722223980.3913524
-3.41796875,-47.36328125,-55.6640625,-25.390625,0.0,1722223980.395214
-33.69140625,-35.64453125,-33.203125,-36.1328125,0.0,1722223980.3990757
-101.07421875,-41.9921875,-33.69140625,-71.77734375,0.0,1722223980.4029372
-88.8671875,-52.734375,-47.8515625,-78.125,0.0,1722223980.4067988
-17.578125,-43.45703125,-42.48046875,-36.62109375,0.0,1722223980.4106603
-23.92578125,-38.0859375,-32.71484375,-23.4375,0.0,1722223980.414522
-86.42578125,-48.33984375,-48.828125,-52.734375,0.0,1722223980.4183836
-88.37890625,-46.875,-57.12890625,-56.15234375,0.0,1722223980.422245
-49.31640625,-42.48046875,-53.22265625,-47.36328125,0.0,1722223980.4267812
-33.203125,-41.50390625,-56.15234375,-45.41015625,0.0,1722223980.430643
-84.9609375,-46.875,-56.640625,-61.5234375,0.0,1722223980.434505
-102.5390625,-44.43359375,-48.33984375,-61.5234375,0.0,1722223980.4383671
-26.3671875,-38.0859375,-39.0625,-21.97265625,0.0,1722223980.442229
16.11328125,-44.921875,-35.15625,1.46484375,0.0,1722223980.4460912
-54.19921875,-51.7578125,-41.50390625,-35.64453125,0.0,1722223980.449953
-104.00390625,-48.828125,-47.8515625,-65.91796875,0.0,1722223980.453815
-60.05859375,-53.22265625,-47.8515625,-47.36328125,0.0,1722223980.4576771
-8.7890625,-62.98828125,-45.41015625,-23.92578125,0.0,1722223980.461539
-33.203125,-46.875,-46.38671875,-35.15625,0.0,1722223980.465401
-86.9140625,-44.43359375,-47.36328125,-61.03515625,0.0,1722223980.469263
-64.94140625,-50.78125,-49.31640625,-45.41015625,0.0,1722223980.4737628
3.41796875,-46.38671875,-53.7109375,-6.34765625,0.0,1722223980.4776251
-4.8828125,-42.96875,-46.38671875,-10.7421875,0.0,1722223980.4814875
-75.1953125,-39.0625,-41.50390625,-55.6640625,0.0,1722223980.48535
-81.0546875,-44.921875,-43.45703125,-61.03515625,0.0,1722223980.4892123
-20.5078125,-48.33984375,-43.45703125,-19.04296875,0.0,1722223980.4930747
3.41796875,-45.8984375,-51.26953125,-6.8359375,0.0,1722223980.496937
-63.4765625,-43.9453125,-51.7578125,-44.921875,0.0,1722223980.5007994
-96.6796875,-48.828125,-40.0390625,-58.59375,0.0,1722223980.5046618
-37.109375,-54.6875,-48.33984375,-35.15625,0.0,1722223980.5085242
0.48828125,-50.29296875,-55.17578125,-22.4609375,0.0,1722223980.5123866
-45.41015625,-44.921875,-43.9453125,-43.9453125,0.0,1722223980.516249
-87.890625,-42.96875,-41.50390625,-60.05859375,0.0,1722223980.5206835
-68.359375,-52.24609375,-59.08203125,-63.96484375,0.0,1722223980.5245464
3.41796875,-45.41015625,-57.12890625,-27.83203125,0.0,1722223980.528409
-16.6015625,-38.0859375,-36.1328125,-32.2265625,0.0,1722223980.5322719
-98.6328125,-49.8046875,-40.0390625,-81.0546875,0.0,1722223980.5361345
-85.9375,-52.24609375,-47.36328125,-58.59375,0.0,1722223980.5399973
-15.625,-49.31640625,-48.33984375,-17.08984375,0.0,1722223980.54386
-10.7421875,-45.8984375,-42.96875,-18.5546875,0.0,1722223980.5477228
-82.03125,-48.828125,-41.9921875,-51.26953125,0.0,1722223980.5515854
-104.98046875,-56.15234375,-50.78125,-63.4765625,0.0,1722223980.5554483
-34.66796875,-53.7109375,-55.17578125,-26.3671875,0.0,1722223980.5593112
3.41796875,-46.38671875,-44.43359375,-9.27734375,0.0,1722223980.5631738
-64.94140625,-51.26953125,-40.0390625,-46.38671875,0.0,1722223980.5676224
-109.375,-54.19921875,-47.8515625,-74.21875,0.0,1722223980.5714855
-51.7578125,-50.29296875,-49.8046875,-48.33984375,0.0,1722223980.5753486
9.765625,-53.22265625,-44.921875,-7.8125,0.0,1722223980.5792117
-37.109375,-57.6171875,-41.50390625,-24.90234375,0.0,1722223980.5830748
-93.26171875,-43.9453125,-42.48046875,-60.05859375,0.0,1722223980.586938
-63.4765625,-37.59765625,-37.59765625,-42.96875,0.0,1722223980.590801
-0.48828125,-41.50390625,-33.69140625,-7.32421875,0.0,1722223980.594664
-16.6015625,-37.109375,-38.57421875,-28.3203125,0.0,1722223980.5985272
-81.0546875,-37.59765625,-37.59765625,-73.2421875,0.0,1722223980.6023903
-72.75390625,-35.64453125,-29.78515625,-54.6875,0.0,1722223980.6062534
-5.37109375,-37.59765625,-32.2265625,-2.9296875,0.0,1722223980.6101165
-3.90625,-48.33984375,-43.45703125,-24.4140625,0.0,1722223980.6144783
-78.61328125,-45.41015625,-39.55078125,-72.265625,0.0,1722223980.6183417
-96.19140625,-41.50390625,-40.52734375,-77.63671875,0.0,1722223980.622205
-38.57421875,-39.55078125,-47.36328125,-48.33984375,0.0,1722223980.6260686
-1.46484375,-36.1328125,-44.43359375,-27.83203125,0.0,1722223980.629932
-57.6171875,-34.66796875,-43.45703125,-55.6640625,0.0,1722223980.6337953
-103.515625,-38.57421875,-39.55078125,-59.5703125,0.0,1722223980.6376588
-54.6875,-54.19921875,-38.0859375,-33.203125,0.0,1722223980.6415222
-1.46484375,-55.17578125,-39.0625,-19.53125,0.0,1722223980.6453855
-40.52734375,-49.8046875,-34.66796875,-30.2734375,0.0,1722223980.649249
-105.95703125,-52.734375,-39.55078125,-67.87109375,0.0,1722223980.6531124
-86.9140625,-61.03515625,-40.0390625,-57.6171875,0.0,1722223980.6569757
-24.4140625,-62.98828125,-40.52734375,-27.83203125,0.0,1722223980.661296
-32.71484375,-45.8984375,-40.0390625,-40.0390625,0.0,1722223980.6651595
-93.26171875,-35.64453125,-35.64453125,-63.96484375,0.0,1722223980.6690233
-91.796875,-43.9453125,-38.0859375,-51.7578125,0.0,1722223980.6728868
-31.73828125,-50.78125,-38.0859375,-21.97265625,0.0,1722223980.6767507
-22.94921875,-49.31640625,-29.296875,-25.390625,0.0,1722223980.6806142
-84.9609375,-44.43359375,-27.83203125,-60.05859375,0.0,1722223980.6844778
-115.234375,-50.29296875,-43.9453125,-71.77734375,0.0,1722223980.6883416
-66.89453125,-62.5,-50.29296875,-53.7109375,0.0,1722223980.6922052
-16.6015625,-58.10546875,-36.62109375,-34.66796875,0.0,1722223980.696069
-52.24609375,-46.875,-30.2734375,-62.5,0.0,1722223980.6999326
-104.4921875,-42.96875,-37.109375,-83.49609375,0.0,1722223980.7037964
-69.3359375,-46.875,-38.0859375,-58.59375,0.0,1722223980.708057
3.41796875,-39.55078125,-39.0625,-29.78515625,0.0,1722223980.7119207
-29.296875,-31.25,-36.62109375,-47.8515625,0.0,1722223980.7157848
-80.078125,-22.4609375,-44.921875,-67.3828125,0.0,1722223980.7196486
-31.73828125,-19.04296875,-39.0625,-34.66796875,0.0,1722223980.7235126
-7.8125,-31.73828125,-20.5078125,-44.921875,0.0,1722223980.7273765
-50.29296875,-21.97265625,-18.06640625,-83.49609375,0.0,1722223980.7312405
-128.90625,-18.5546875,-15.13671875,-114.2578125,0.0,1722223980.7351043
-155.76171875,-20.99609375,-4.8828125,-133.30078125,0.0,1722223980.7389684
-104.00390625,-14.6484375,1.953125,-110.83984375,0.0,1722223980.7428322
-118.65234375,-23.4375,0.9765625,-129.8828125,0.0,1722223980.746696
-211.9140625,-19.53125,1.953125,-202.63671875,0.0,1722223980.75056
-255.37109375,-13.18359375,10.7421875,-223.14453125,0.0,1722223980.7550876
-216.796875,-16.11328125,23.92578125,-203.125,0.0,1722223980.758952
-182.12890625,-15.13671875,26.3671875,-190.91796875,0.0,1722223980.7628162
-239.2578125,-11.23046875,28.80859375,-223.6328125,0.0,1722223980.7666805
-291.015625,-9.27734375,35.64453125,-248.046875,0.0,1722223980.7705448
-249.51171875,-14.6484375,33.69140625,-222.16796875,0.0,1722223980.774409
-210.44921875,-21.97265625,13.18359375,-220.703125,0.0,1722223980.7782733
-237.79296875,-17.08984375,2.9296875,-236.81640625,0.0,1722223980.7821376
-278.3203125,-18.5546875,5.859375,-255.859375,0.0,1722223980.786002
-244.62890625,-20.99609375,-5.859375,-235.83984375,0.0,1722223980.7898664
-176.26953125,-27.83203125,-17.578125,-184.08203125,0.0,1722223980.7937307
-173.828125,-39.55078125,-17.578125,-172.36328125,0.0,1722223980.797595
-210.44921875,-46.875,-19.04296875,-188.96484375,0.0,1722223980.802079
-193.84765625,-45.8984375,-21.97265625,-170.41015625,0.0,1722223980.8059437
-122.55859375,-56.15234375,-31.25,-132.8125,0.0,1722223980.8098083
-68.84765625,-62.98828125,-44.921875,-104.98046875,0.0,1722223980.813673
-106.93359375,-59.08203125,-55.6640625,-118.1640625,0.0,1722223980.8175378
-125.48828125,-63.4765625,-58.59375,-120.1171875,0.0,1722223980.8214023
-57.12890625,-62.98828125,-58.59375,-71.2890625,0.0,1722223980.825267
7.32421875,-63.4765625,-62.01171875,-28.80859375,0.0,1722223980.8291318
-22.4609375,-66.40625,-67.3828125,-43.45703125,0.0,1722223980.8329964
-70.3125,-64.453125,-65.91796875,-53.22265625,0.0,1722223980.8368611
-49.8046875,-65.4296875,-73.73046875,-29.78515625,0.0,1722223980.840726
29.78515625,-57.6171875,-73.73046875,12.20703125,0.0,1722223980.8445904
40.52734375,-51.26953125,-58.10546875,5.37109375,0.0,1722223980.8490329
-36.62109375,-61.03515625,-72.75390625,-37.59765625,0.0,1722223980.852898
-38.0859375,-70.80078125,-95.703125,-40.52734375,0.0,1722223980.856763
32.71484375,-68.84765625,-85.44921875,4.8828125,0.0,1722223980.860628
41.015625,-72.265625,-72.75390625,15.13671875,0.0,1722223980.864493
-19.53125,-74.21875,-69.82421875,-20.5078125,0.0,1722223980.8683581
-32.71484375,-65.4296875,-73.73046875,-24.4140625,0.0,1722223980.8722231
29.296875,-61.03515625,-77.1484375,10.25390625,0.0,1722223980.8760881
75.1953125,-57.12890625,-59.5703125,37.109375,0.0,1722223980.8799531
21.97265625,-57.6171875,-56.15234375,5.859375,0.0,1722223980.8838181
-32.2265625,-58.59375,-62.98828125,-12.20703125,0.0,1722223980.8876832
-15.13671875,-61.03515625,-62.98828125,4.8828125,0.0,1722223980.8915482
38.0859375,-65.4296875,-59.08203125,31.73828125,0.0,1722223980.8959396
16.11328125,-59.5703125,-56.15234375,18.5546875,0.0,1722223980.8998048
-37.109375,-56.640625,-60.05859375,-17.08984375,0.0,1722223980.9036703
-20.01953125,-66.40625,-65.91796875,-2.44140625,0.0,1722223980.9075356
36.1328125,-67.3828125,-66.40625,38.57421875,0.0,1722223980.9114008
32.71484375,-58.10546875,-53.7109375,24.90234375,0.0,1722223980.9152663
-22.4609375,-45.41015625,-49.31640625,-15.13671875,0.0,1722223980.9191315
-27.34375,-44.43359375,-49.8046875,-8.7890625,0.0,1722223980.9229968
25.390625,-61.03515625,-53.22265625,9.765625,0.0,1722223980.9268622
33.203125,-62.5,-56.640625,2.44140625,0.0,1722223980.9307275
-28.80859375,-50.78125,-62.01171875,-27.34375,0.0,1722223980.9345927
-47.36328125,-48.828125,-70.3125,-39.0625,0.0,1722223980.9384582
9.765625,-49.31640625,-69.3359375,-12.20703125,0.0,1722223980.942821
48.828125,-49.8046875,-57.12890625,0.9765625,0.0,1722223980.9466865
0.0,-41.015625,-45.8984375,-27.83203125,0.0,1722223980.9505522
-41.50390625,-41.50390625,-43.9453125,-41.50390625,0.0,1722223980.954418
-0.9765625,-52.24609375,-55.17578125,-11.23046875,0.0,1722223980.9582834
43.45703125,-54.6875,-62.5,2.44140625,0.0,1722223980.9621491
14.16015625,-51.26953125,-62.5,-25.390625,0.0,1722223980.9660146
-39.0625,-47.8515625,-48.828125,-38.0859375,0.0,1722223980.9698803
-38.57421875,-53.22265625,-53.7109375,-31.25,0.0,1722223980.9737458
7.32421875,-63.4765625,-62.01171875,-11.23046875,0.0,1722223980.9776115
-12.6953125,-62.98828125,-50.29296875,-8.30078125,0.0,1722223980.9814773
-86.42578125,-66.40625,-53.7109375,-37.59765625,0.0,1722223980.9853427
-91.796875,-66.40625,-58.10546875,-42.96875,0.0,1722223980.9896646
-24.90234375,-57.6171875,-44.43359375,-16.6015625,0.0,1722223980.9935303
-4.39453125,-55.6640625,-48.33984375,1.953125,0.0,1722223980.9973962
-63.4765625,-52.24609375,-44.921875,-18.5546875,0.0,1722223981.0012622
-86.9140625,-50.78125,-37.109375,-44.921875,0.0,1722223981.005128
-36.1328125,-50.78125,-41.50390625,-33.203125,0.0,1722223981.0089939
11.23046875,-47.8515625,-43.9453125,-9.27734375,0.0,1722223981.0128598
-23.4375,-40.52734375,-42.96875,-23.92578125,0.0,1722223981.0167255
-70.3125,-46.875,-40.52734375,-51.7578125,0.0,1722223981.0205915
-43.45703125,-56.15234375,-50.29296875,-39.55078125,0.0,1722223981.0244575
1.953125,-57.12890625,-56.640625,-7.32421875,0.0,1722223981.0283232
-28.80859375,-60.546875,-55.6640625,-29.296875,0.0,1722223981.0321891
