TP9,AF7,AF8,TP10,AUX,Timestamp
-67.3828125,4.39453125,3.90625,-69.3359375,0.0,1722283907.7902489
-67.87109375,6.34765625,2.9296875,-72.75390625,0.0,1722283907.7939487
-79.58984375,6.8359375,0.0,-85.9375,0.0,1722283907.7976482
-75.1953125,7.8125,0.0,-75.68359375,0.0,1722283907.801348
-64.453125,2.44140625,2.9296875,-60.546875,0.0,1722283907.8050478
-61.03515625,1.953125,-4.39453125,-59.08203125,0.0,1722283907.8087475
-59.5703125,1.953125,-8.30078125,-68.84765625,0.0,1722283907.8124473
-59.08203125,-7.8125,-15.625,-86.9140625,0.0,1722283907.816147
-61.5234375,-0.48828125,-20.5078125,-82.03125,0.0,1722283907.8198469
-71.2890625,2.44140625,-25.87890625,-80.56640625,0.0,1722283907.8235464
-87.40234375,-5.37109375,-37.59765625,-85.9375,0.0,1722283907.8272462
-83.49609375,-1.953125,-30.2734375,-78.125,0.0,1722283907.830946
-71.77734375,-1.953125,-24.90234375,-79.58984375,0.0,1722283907.8371272
-69.3359375,-6.34765625,-25.390625,-66.89453125,0.0,1722283907.8408334
-85.9375,-6.8359375,-34.1796875,-83.49609375,0.0,1722283907.8445396
-94.23828125,-4.8828125,-43.45703125,-104.00390625,0.0,1722283907.8482456
-79.58984375,2.44140625,-49.8046875,-83.49609375,0.0,1722283907.8519518
-83.0078125,5.859375,-46.875,-86.42578125,0.0,1722283907.855658
-82.51953125,0.0,-40.52734375,-93.26171875,0.0,1722283907.8593643
-68.84765625,1.953125,-41.015625,-72.265625,0.0,1722283907.8630705
-72.265625,7.32421875,-38.57421875,-63.4765625,0.0,1722283907.8667767
-82.51953125,3.90625,-46.875,-74.21875,0.0,1722283907.870483
-72.265625,6.34765625,-48.828125,-65.91796875,0.0,1722283907.8741891
-56.640625,11.71875,-37.59765625,-48.33984375,0.0,1722283907.8778954
-51.7578125,13.671875,-35.15625,-52.24609375,0.0,1722283907.8838859
-51.26953125,18.06640625,-41.9921875,-53.22265625,0.0,1722283907.8875978
-55.17578125,15.13671875,-45.41015625,-42.48046875,0.0,1722283907.8913097
-53.22265625,13.18359375,-40.52734375,-44.921875,0.0,1722283907.895022
-51.26953125,10.7421875,-29.296875,-28.3203125,0.0,1722283907.8987339
-57.6171875,9.765625,-29.78515625,-34.1796875,0.0,1722283907.9024458
-62.01171875,4.8828125,-38.0859375,-60.05859375,0.0,1722283907.9061577
-54.6875,1.953125,-31.25,-65.91796875,0.0,1722283907.9098697
-53.7109375,3.41796875,-30.2734375,-73.2421875,0.0,1722283907.9135816
-67.3828125,-2.9296875,-41.50390625,-78.61328125,0.0,1722283907.9172935
-61.03515625,-5.859375,-40.52734375,-52.734375,0.0,1722283907.9210057
-63.4765625,-9.27734375,-39.55078125,-53.22265625,0.0,1722283907.9247177
-71.2890625,-5.37109375,-26.85546875,-62.5,0.0,1722283907.9304934
-67.3828125,-2.9296875,-28.3203125,-59.08203125,0.0,1722283907.9342103
-60.546875,-5.37109375,-31.73828125,-53.7109375,0.0,1722283907.9379275
-61.03515625,-6.34765625,-26.85546875,-62.98828125,0.0,1722283907.9416444
-59.5703125,-11.23046875,-36.1328125,-69.3359375,0.0,1722283907.9453614
-52.24609375,-12.6953125,-40.52734375,-52.734375,0.0,1722283907.9490786
-57.12890625,-14.16015625,-38.57421875,-46.875,0.0,1722283907.9527955
-59.5703125,-14.6484375,-42.96875,-46.38671875,0.0,1722283907.9565125
-66.89453125,-21.484375,-42.96875,-54.6875,0.0,1722283907.9602296
-60.546875,-23.4375,-33.203125,-63.96484375,0.0,1722283907.9639466
-44.921875,-19.04296875,-33.69140625,-64.94140625,0.0,1722283907.9676635
-46.875,-20.5078125,-35.64453125,-65.4296875,0.0,1722283907.9713807
-57.12890625,-20.01953125,-27.34375,-65.4296875,0.0,1722283907.9769998
-61.5234375,-19.04296875,-29.296875,-68.84765625,0.0,1722283907.9807215
-61.03515625,-18.06640625,-27.83203125,-67.3828125,0.0,1722283907.984443
-63.4765625,-20.5078125,-25.390625,-65.4296875,0.0,1722283907.9881644
-70.3125,-19.04296875,-27.83203125,-67.3828125,0.0,1722283907.9918861
-61.5234375,-20.99609375,-25.87890625,-62.01171875,0.0,1722283907.9956076
-49.8046875,-24.4140625,-19.04296875,-49.8046875,0.0,1722283907.9993293
-60.546875,-26.3671875,-27.34375,-53.22265625,0.0,1722283908.0030508
-65.91796875,-29.296875,-40.0390625,-61.03515625,0.0,1722283908.0067723
-53.7109375,-23.92578125,-21.97265625,-52.24609375,0.0,1722283908.010494
-52.24609375,-23.92578125,-8.30078125,-52.24609375,0.0,1722283908.0142155
-68.84765625,-28.80859375,-12.20703125,-68.359375,0.0,1722283908.017937
-78.125,-22.4609375,-18.5546875,-74.70703125,0.0,1722283908.0234156
-75.1953125,-20.99609375,-21.484375,-69.82421875,0.0,1722283908.027141
-83.49609375,-25.87890625,-18.5546875,-90.8203125,0.0,1722283908.0308666
-77.63671875,-29.78515625,-14.16015625,-83.984375,0.0,1722283908.0345924
-77.1484375,-31.25,-14.6484375,-63.96484375,0.0,1722283908.038318
-86.42578125,-33.69140625,-22.4609375,-67.3828125,0.0,1722283908.0420437
-79.58984375,-36.1328125,-30.76171875,-69.82421875,0.0,1722283908.0457692
-81.54296875,-41.9921875,-34.66796875,-68.359375,0.0,1722283908.0494947
-84.47265625,-49.8046875,-27.34375,-65.4296875,0.0,1722283908.0532205
-75.1953125,-42.48046875,-21.484375,-70.3125,0.0,1722283908.056946
-74.21875,-39.0625,-19.53125,-70.3125,0.0,1722283908.0606718
-73.73046875,-47.36328125,-24.4140625,-78.61328125,0.0,1722283908.0643973
-68.84765625,-45.41015625,-22.94921875,-88.37890625,0.0,1722283908.0697355
-62.98828125,-40.52734375,-14.16015625,-73.2421875,0.0,1722283908.0734649
-55.17578125,-36.62109375,-18.5546875,-54.19921875,0.0,1722283908.077194
-51.26953125,-40.52734375,-23.92578125,-50.78125,0.0,1722283908.0809233
-57.6171875,-42.48046875,-22.94921875,-51.26953125,0.0,1722283908.0846527
-54.6875,-33.69140625,-23.4375,-50.78125,0.0,1722283908.0883818
-57.12890625,-36.62109375,-24.4140625,-59.5703125,0.0,1722283908.092111
-68.359375,-46.38671875,-23.4375,-64.94140625,0.0,1722283908.0958405
-65.91796875,-46.38671875,-20.01953125,-61.5234375,0.0,1722283908.0995696
-65.4296875,-38.57421875,-20.01953125,-51.7578125,0.0,1722283908.103299
-66.89453125,-41.9921875,-22.94921875,-59.5703125,0.0,1722283908.1070282
-63.4765625,-50.29296875,-21.97265625,-68.359375,0.0,1722283908.1107574
-49.31640625,-48.828125,-24.4140625,-46.875,0.0,1722283908.1169546
-44.921875,-50.78125,-31.25,-48.828125,0.0,1722283908.1206892
-62.5,-62.01171875,-30.2734375,-65.4296875,0.0,1722283908.124424
-63.96484375,-62.01171875,-25.390625,-59.5703125,0.0,1722283908.1281586
-51.7578125,-62.5,-27.83203125,-53.7109375,0.0,1722283908.1318932
-47.8515625,-68.84765625,-26.3671875,-48.33984375,0.0,1722283908.135628
-59.08203125,-71.2890625,-28.80859375,-62.01171875,0.0,1722283908.1393626
-61.5234375,-72.265625,-28.80859375,-72.75390625,0.0,1722283908.1430972
-61.5234375,-69.3359375,-26.3671875,-64.453125,0.0,1722283908.146832
-64.453125,-68.359375,-28.80859375,-66.89453125,0.0,1722283908.1505666
-72.265625,-75.1953125,-36.62109375,-72.265625,0.0,1722283908.1543014
-70.3125,-73.2421875,-30.76171875,-68.359375,0.0,1722283908.158036
-61.03515625,-73.73046875,-29.296875,-59.5703125,0.0,1722283908.1640623
-63.96484375,-80.078125,-31.73828125,-61.03515625,0.0,1722283908.1678019
-62.98828125,-82.51953125,-30.2734375,-66.89453125,0.0,1722283908.1715415
-60.05859375,-83.984375,-34.66796875,-59.08203125,0.0,1722283908.175281
-65.4296875,-83.49609375,-28.3203125,-53.7109375,0.0,1722283908.1790206
-61.5234375,-89.84375,-30.76171875,-57.6171875,0.0,1722283908.1827602
-55.6640625,-95.21484375,-42.48046875,-62.01171875,0.0,1722283908.1864998
-60.05859375,-93.26171875,-39.0625,-55.6640625,0.0,1722283908.1902394
-54.19921875,-87.890625,-30.2734375,-46.38671875,0.0,1722283908.1939788
-49.8046875,-88.37890625,-37.59765625,-53.7109375,0.0,1722283908.1977184
-60.546875,-95.21484375,-45.41015625,-63.96484375,0.0,1722283908.201458
-62.5,-94.7265625,-41.9921875,-61.03515625,0.0,1722283908.2051976
-45.8984375,-98.6328125,-37.109375,-36.1328125,0.0,1722283908.2110407
-29.78515625,-104.4921875,-41.50390625,-28.3203125,0.0,1722283908.2147849
-53.22265625,-95.21484375,-57.12890625,-69.82421875,0.0,1722283908.2185287
-66.89453125,-89.84375,-56.15234375,-84.9609375,0.0,1722283908.2222726
-40.0390625,-93.26171875,-50.78125,-55.6640625,0.0,1722283908.2260165
-20.01953125,-90.8203125,-51.7578125,-31.73828125,0.0,1722283908.2297606
-15.625,-89.84375,-53.22265625,-23.4375,0.0,1722283908.2335045
-11.71875,-89.35546875,-65.91796875,-16.6015625,0.0,1722283908.2372484
-2.44140625,-85.9375,-66.40625,-22.4609375,0.0,1722283908.2409925
8.30078125,-82.51953125,-64.94140625,-22.94921875,0.0,1722283908.2447364
7.32421875,-79.58984375,-67.3828125,-20.99609375,0.0,1722283908.2484803
10.7421875,-82.03125,-62.01171875,-11.23046875,0.0,1722283908.2522242
20.5078125,-85.44921875,-56.640625,7.8125,0.0,1722283908.2579148
14.6484375,-87.890625,-56.640625,-5.859375,0.0,1722283908.2616627
13.18359375,-86.9140625,-58.59375,-24.4140625,0.0,1722283908.2654107
26.3671875,-78.61328125,-61.03515625,-6.34765625,0.0,1722283908.2691586
27.34375,-77.1484375,-54.6875,11.71875,0.0,1722283908.2729065
14.6484375,-78.125,-46.38671875,-1.46484375,0.0,1722283908.2766542
0.48828125,-78.125,-49.31640625,-22.94921875,0.0,1722283908.2804022
2.44140625,-72.75390625,-48.33984375,-10.25390625,0.0,1722283908.2841501
-5.859375,-80.56640625,-56.15234375,-20.01953125,0.0,1722283908.287898
-22.94921875,-91.796875,-67.3828125,-46.875,0.0,1722283908.291646
-9.765625,-83.49609375,-52.24609375,-42.48046875,0.0,1722283908.295394
-5.37109375,-83.0078125,-50.78125,-32.2265625,0.0,1722283908.299142
-8.7890625,-86.42578125,-55.17578125,-27.34375,0.0,1722283908.3047194
-7.8125,-78.125,-43.9453125,-26.3671875,0.0,1722283908.308471
-0.9765625,-67.3828125,-35.64453125,-2.9296875,0.0,1722283908.3122225
6.34765625,-71.2890625,-40.52734375,-10.25390625,0.0,1722283908.315974
-5.859375,-74.21875,-47.36328125,-36.62109375,0.0,1722283908.3197255
-12.6953125,-74.21875,-47.36328125,-30.76171875,0.0,1722283908.323477
-13.671875,-83.0078125,-48.33984375,-26.85546875,0.0,1722283908.3272285
-22.94921875,-88.37890625,-51.26953125,-26.85546875,0.0,1722283908.3309803
-35.15625,-88.37890625,-61.03515625,-35.15625,0.0,1722283908.3347318
-37.109375,-84.9609375,-56.640625,-41.015625,0.0,1722283908.3384833
-30.76171875,-84.9609375,-51.26953125,-41.9921875,0.0,1722283908.3422348
-22.4609375,-81.54296875,-49.31640625,-27.83203125,0.0,1722283908.3459864
-27.83203125,-80.56640625,-49.8046875,-36.1328125,0.0,1722283908.3515399
-27.34375,-82.51953125,-54.19921875,-33.69140625,0.0,1722283908.3552947
-20.5078125,-76.66015625,-44.921875,-25.390625,0.0,1722283908.3590498
-29.78515625,-81.54296875,-44.921875,-30.76171875,0.0,1722283908.362805
-39.0625,-82.03125,-56.15234375,-32.71484375,0.0,1722283908.36656
-46.875,-75.68359375,-58.59375,-38.0859375,0.0,1722283908.3703148
-38.57421875,-74.70703125,-50.29296875,-41.50390625,0.0,1722283908.37407
-38.57421875,-74.21875,-51.26953125,-54.6875,0.0,1722283908.377825
-60.546875,-86.42578125,-63.96484375,-70.80078125,0.0,1722283908.38158
-61.5234375,-85.9375,-60.546875,-60.546875,0.0,1722283908.385335
-57.12890625,-88.8671875,-57.12890625,-52.734375,0.0,1722283908.38909
-60.546875,-91.30859375,-61.03515625,-62.98828125,0.0,1722283908.3928452
-58.59375,-83.984375,-62.5,-69.3359375,0.0,1722283908.3981698
-54.19921875,-83.49609375,-62.5,-60.05859375,0.0,1722283908.401928
-44.43359375,-84.9609375,-61.5234375,-41.9921875,0.0,1722283908.405686
-38.57421875,-92.28515625,-60.546875,-44.43359375,0.0,1722283908.4094439
-44.921875,-92.7734375,-62.98828125,-49.31640625,0.0,1722283908.4132018
-40.52734375,-90.33203125,-58.59375,-41.9921875,0.0,1722283908.41696
-20.01953125,-90.8203125,-46.875,-24.90234375,0.0,1722283908.420718
-35.15625,-82.03125,-59.08203125,-40.0390625,0.0,1722283908.424476
-62.98828125,-79.1015625,-76.171875,-69.3359375,0.0,1722283908.4282339
-56.640625,-82.03125,-72.75390625,-70.80078125,0.0,1722283908.4319918
-45.8984375,-81.0546875,-79.58984375,-62.98828125,0.0,1722283908.43575
-41.9921875,-76.66015625,-82.03125,-48.33984375,0.0,1722283908.439508
-51.7578125,-80.56640625,-70.3125,-62.98828125,0.0,1722283908.4448154
-54.19921875,-83.0078125,-66.40625,-75.68359375,0.0,1722283908.4485762
-51.26953125,-82.03125,-69.3359375,-68.359375,0.0,1722283908.4523373
-59.5703125,-86.9140625,-67.3828125,-64.453125,0.0,1722283908.456098
-54.6875,-89.84375,-63.4765625,-67.3828125,0.0,1722283908.459859
-42.48046875,-89.84375,-62.01171875,-55.17578125,0.0,1722283908.4636197
-50.29296875,-93.26171875,-60.546875,-57.6171875,0.0,1722283908.4673808
-57.12890625,-90.8203125,-64.94140625,-71.77734375,0.0,1722283908.4711416
-59.5703125,-88.37890625,-68.359375,-67.87109375,0.0,1722283908.4749024
-60.546875,-92.7734375,-67.3828125,-55.6640625,0.0,1722283908.4786632
-59.08203125,-88.8671875,-69.3359375,-44.43359375,0.0,1722283908.4824243
-59.08203125,-86.9140625,-73.2421875,-49.31640625,0.0,1722283908.486185
-53.7109375,-89.84375,-72.75390625,-63.4765625,0.0,1722283908.4921467
-50.78125,-89.35546875,-70.3125,-58.59375,0.0,1722283908.4959116
-52.24609375,-96.19140625,-67.87109375,-51.26953125,0.0,1722283908.4996765
-52.24609375,-93.26171875,-66.89453125,-49.31640625,0.0,1722283908.5034413
-49.8046875,-93.75,-74.70703125,-39.0625,0.0,1722283908.5072062
-34.66796875,-99.12109375,-72.75390625,-16.6015625,0.0,1722283908.510971
-31.73828125,-92.7734375,-65.4296875,-24.90234375,0.0,1722283908.514736
-64.453125,-89.84375,-70.3125,-61.03515625,0.0,1722283908.5185008
-69.3359375,-92.28515625,-70.80078125,-55.17578125,0.0,1722283908.5222657
-43.45703125,-86.42578125,-68.84765625,-43.9453125,0.0,1722283908.5260305
-42.48046875,-85.44921875,-78.125,-55.17578125,0.0,1722283908.5297954
-42.96875,-81.0546875,-75.1953125,-43.45703125,0.0,1722283908.5335603
-43.9453125,-83.984375,-64.94140625,-40.0390625,0.0,1722283908.539354
-52.734375,-93.26171875,-68.359375,-57.12890625,0.0,1722283908.5431225
-51.7578125,-92.28515625,-74.21875,-72.265625,0.0,1722283908.546891
-53.7109375,-95.21484375,-76.171875,-75.1953125,0.0,1722283908.5506594
-52.24609375,-96.19140625,-79.58984375,-67.87109375,0.0,1722283908.5544279
-50.78125,-93.75,-77.1484375,-65.4296875,0.0,1722283908.5581963
-53.22265625,-91.30859375,-78.61328125,-62.98828125,0.0,1722283908.5619648
-44.921875,-86.9140625,-79.58984375,-61.5234375,0.0,1722283908.5657332
-34.1796875,-79.58984375,-71.2890625,-49.31640625,0.0,1722283908.5695016
-41.015625,-86.9140625,-76.171875,-50.29296875,0.0,1722283908.57327
-41.015625,-93.26171875,-85.44921875,-62.98828125,0.0,1722283908.5770388
-21.484375,-87.890625,-82.03125,-53.22265625,0.0,1722283908.5808072
-25.390625,-96.19140625,-80.56640625,-47.8515625,0.0,1722283908.5863452
-37.109375,-95.703125,-76.66015625,-50.29296875,0.0,1722283908.5901167
-40.52734375,-91.30859375,-66.40625,-41.9921875,0.0,1722283908.5938883
-40.0390625,-92.28515625,-60.546875,-37.59765625,0.0,1722283908.5976598
-50.78125,-94.7265625,-61.5234375,-37.59765625,0.0,1722283908.6014314
-60.05859375,-100.09765625,-68.84765625,-33.203125,0.0,1722283908.605203
-56.15234375,-98.14453125,-67.87109375,-33.69140625,0.0,1722283908.6089745
-49.8046875,-96.6796875,-67.87109375,-42.48046875,0.0,1722283908.612746
-44.921875,-89.84375,-67.3828125,-48.828125,0.0,1722283908.6165175
-50.29296875,-88.37890625,-70.80078125,-52.734375,0.0,1722283908.620289
-51.7578125,-87.40234375,-72.265625,-57.12890625,0.0,1722283908.6240606
-43.9453125,-80.56640625,-63.96484375,-45.41015625,0.0,1722283908.6278322
-39.55078125,-88.37890625,-62.98828125,-29.296875,0.0,1722283908.6333027
-49.31640625,-91.796875,-66.89453125,-35.15625,0.0,1722283908.637077
-48.33984375,-84.47265625,-61.5234375,-35.64453125,0.0,1722283908.6408515
-46.38671875,-82.51953125,-57.12890625,-40.0390625,0.0,1722283908.644626
-43.45703125,-83.0078125,-63.4765625,-50.29296875,0.0,1722283908.6484003
-41.015625,-86.42578125,-71.77734375,-56.640625,0.0,1722283908.6521747
-54.6875,-94.7265625,-76.66015625,-67.3828125,0.0,1722283908.6559494
-56.640625,-92.28515625,-69.3359375,-62.01171875,0.0,1722283908.6597238
-53.22265625,-97.16796875,-67.87109375,-55.17578125,0.0,1722283908.6634982
-56.15234375,-105.46875,-72.265625,-52.734375,0.0,1722283908.6672726
-53.7109375,-100.5859375,-67.3828125,-49.31640625,0.0,1722283908.671047
-50.78125,-97.65625,-66.40625,-56.640625,0.0,1722283908.6748214
-44.921875,-86.42578125,-64.94140625,-46.875,0.0,1722283908.6801157
-41.9921875,-86.9140625,-69.82421875,-32.71484375,0.0,1722283908.6838927
-38.57421875,-95.703125,-72.265625,-27.83203125,0.0,1722283908.6876695
-42.96875,-96.6796875,-70.80078125,-37.109375,0.0,1722283908.6914465
-42.96875,-100.5859375,-75.68359375,-56.15234375,0.0,1722283908.6952236
-36.1328125,-100.09765625,-74.70703125,-54.19921875,0.0,1722283908.6990004
-41.50390625,-98.14453125,-72.265625,-47.36328125,0.0,1722283908.7027774
-50.78125,-101.5625,-75.1953125,-57.12890625,0.0,1722283908.7065544
-53.22265625,-98.14453125,-79.1015625,-55.6640625,0.0,1722283908.7103312
-50.29296875,-101.07421875,-85.44921875,-56.15234375,0.0,1722283908.7141082
-48.33984375,-105.95703125,-86.9140625,-58.10546875,0.0,1722283908.7178853
-44.43359375,-96.19140625,-75.1953125,-44.921875,0.0,1722283908.721662
-41.015625,-96.19140625,-68.84765625,-40.52734375,0.0,1722283908.726843
-36.1328125,-99.609375,-71.77734375,-35.64453125,0.0,1722283908.7306225
-32.71484375,-95.703125,-73.2421875,-36.62109375,0.0,1722283908.7344017
-39.0625,-93.26171875,-76.171875,-36.62109375,0.0,1722283908.7381809
-49.8046875,-96.6796875,-77.63671875,-44.921875,0.0,1722283908.7419603
-46.875,-96.19140625,-71.77734375,-54.6875,0.0,1722283908.7457395
-40.0390625,-93.75,-62.98828125,-47.36328125,0.0,1722283908.7495186
-48.33984375,-98.14453125,-66.40625,-49.31640625,0.0,1722283908.753298
-48.828125,-105.95703125,-76.171875,-62.98828125,0.0,1722283908.7570772
-42.48046875,-101.07421875,-71.2890625,-47.36328125,0.0,1722283908.7608564
-45.41015625,-93.26171875,-69.3359375,-29.78515625,0.0,1722283908.7646358
-50.29296875,-94.23828125,-75.1953125,-39.55078125,0.0,1722283908.768415
-57.12890625,-98.14453125,-81.0546875,-51.26953125,0.0,1722283908.7735085
-46.875,-94.23828125,-76.66015625,-49.31640625,0.0,1722283908.7772899
-33.69140625,-90.8203125,-73.2421875,-62.5,0.0,1722283908.7810714
-34.1796875,-91.796875,-75.1953125,-56.15234375,0.0,1722283908.7848527
-42.48046875,-91.796875,-75.68359375,-47.36328125,0.0,1722283908.788634
-39.55078125,-81.54296875,-74.21875,-51.7578125,0.0,1722283908.7924154
-30.76171875,-72.265625,-68.359375,-29.78515625,0.0,1722283908.7961967
-36.62109375,-81.0546875,-76.171875,-31.73828125,0.0,1722283908.799978
-43.9453125,-85.44921875,-84.9609375,-41.9921875,0.0,1722283908.8037593
-42.48046875,-78.61328125,-74.21875,-33.203125,0.0,1722283908.807541
-38.0859375,-78.61328125,-73.2421875,-54.19921875,0.0,1722283908.8113222
-41.015625,-82.03125,-78.61328125,-64.453125,0.0,1722283908.8151035
-49.31640625,-86.9140625,-75.68359375,-45.41015625,0.0,1722283908.8200936
-52.734375,-83.984375,-73.73046875,-40.0390625,0.0,1722283908.8238769
-49.31640625,-81.0546875,-73.73046875,-40.0390625,0.0,1722283908.82766
-52.24609375,-87.40234375,-72.75390625,-32.71484375,0.0,1722283908.8314433
-54.19921875,-92.28515625,-70.3125,-40.52734375,0.0,1722283908.8352265
-53.7109375,-90.33203125,-72.265625,-50.78125,0.0,1722283908.8390098
-68.359375,-95.21484375,-77.63671875,-54.19921875,0.0,1722283908.842793
-74.70703125,-103.515625,-76.66015625,-51.7578125,0.0,1722283908.8465762
-66.40625,-101.07421875,-77.63671875,-49.31640625,0.0,1722283908.8503597
-59.08203125,-95.21484375,-76.171875,-54.19921875,0.0,1722283908.854143
-52.734375,-91.30859375,-69.82421875,-59.5703125,0.0,1722283908.8579261
-45.8984375,-86.9140625,-65.4296875,-51.26953125,0.0,1722283908.8617094
-45.41015625,-85.9375,-59.5703125,-38.57421875,0.0,1722283908.8673575
-41.50390625,-85.9375,-62.01171875,-38.0859375,0.0,1722283908.8711438
-37.109375,-87.40234375,-63.4765625,-34.66796875,0.0,1722283908.87493
-43.9453125,-89.35546875,-60.546875,-43.45703125,0.0,1722283908.878716
-43.9453125,-87.890625,-61.03515625,-46.38671875,0.0,1722283908.882502
-41.015625,-83.0078125,-64.94140625,-33.69140625,0.0,1722283908.8862882
-31.73828125,-78.125,-69.3359375,-24.4140625,0.0,1722283908.8900745
-36.62109375,-81.0546875,-72.75390625,-38.0859375,0.0,1722283908.8938606
-45.41015625,-83.49609375,-70.3125,-42.48046875,0.0,1722283908.8976467
-55.17578125,-88.8671875,-58.59375,-41.50390625,0.0,1722283908.9014328
-62.5,-98.14453125,-68.359375,-58.59375,0.0,1722283908.9052188
-53.22265625,-89.84375,-64.453125,-52.734375,0.0,1722283908.909005
-55.17578125,-88.8671875,-58.59375,-44.921875,0.0,1722283908.9145005
-55.17578125,-95.703125,-70.80078125,-45.8984375,0.0,1722283908.9182892
-58.59375,-92.28515625,-68.359375,-51.26953125,0.0,1722283908.922078
-52.24609375,-86.42578125,-67.3828125,-48.33984375,0.0,1722283908.9258668
-33.203125,-81.54296875,-66.89453125,-43.45703125,0.0,1722283908.9296556
-27.83203125,-79.1015625,-58.10546875,-26.3671875,0.0,1722283908.9334443
-34.1796875,-84.47265625,-59.08203125,-18.5546875,0.0,1722283908.937233
-39.0625,-86.9140625,-60.546875,-26.85546875,0.0,1722283908.9410217
-35.64453125,-84.9609375,-49.31640625,-25.390625,0.0,1722283908.9448104
-31.25,-79.58984375,-48.828125,-32.2265625,0.0,1722283908.948599
-38.57421875,-74.21875,-62.5,-45.8984375,0.0,1722283908.9523878
-37.109375,-74.70703125,-60.546875,-43.9453125,0.0,1722283908.9561765
-35.64453125,-74.70703125,-60.546875,-33.203125,0.0,1722283908.9615204
-37.59765625,-78.125,-66.40625,-27.83203125,0.0,1722283908.9653115
-37.59765625,-84.47265625,-64.94140625,-29.78515625,0.0,1722283908.9691026
-36.1328125,-80.56640625,-63.4765625,-21.484375,0.0,1722283908.9728937
-38.0859375,-78.125,-61.03515625,-17.08984375,0.0,1722283908.9766846
-30.2734375,-80.56640625,-60.05859375,-30.2734375,0.0,1722283908.9804757
-28.3203125,-84.47265625,-60.546875,-41.9921875,0.0,1722283908.9842668
-36.1328125,-87.40234375,-64.453125,-40.0390625,0.0,1722283908.9880579
-31.73828125,-82.51953125,-64.453125,-27.34375,0.0,1722283908.9918487
-38.0859375,-85.9375,-69.3359375,-38.57421875,0.0,1722283908.9956398
-41.015625,-90.33203125,-74.21875,-55.17578125,0.0,1722283908.999431
-41.015625,-85.9375,-72.265625,-45.41015625,0.0,1722283909.003222
-44.921875,-83.984375,-71.77734375,-35.64453125,0.0,1722283909.008547
-42.96875,-86.42578125,-68.84765625,-51.26953125,0.0,1722283909.0123405
-41.50390625,-86.9140625,-63.96484375,-59.08203125,0.0,1722283909.0161338
-36.1328125,-83.49609375,-58.10546875,-38.0859375,0.0,1722283909.019927
-31.25,-75.68359375,-51.26953125,-31.73828125,0.0,1722283909.0237203
-37.109375,-73.73046875,-53.22265625,-36.62109375,0.0,1722283909.0275135
-33.69140625,-83.0078125,-62.5,-35.15625,0.0,1722283909.0313067
-32.71484375,-84.9609375,-59.08203125,-30.2734375,0.0,1722283909.0351002
-47.36328125,-83.0078125,-60.546875,-46.875,0.0,1722283909.0388935
-47.36328125,-81.0546875,-67.3828125,-52.24609375,0.0,1722283909.0426867
-45.41015625,-79.1015625,-63.4765625,-47.36328125,0.0,1722283909.04648
-43.45703125,-81.54296875,-64.453125,-47.36328125,0.0,1722283909.0502732
-41.015625,-81.0546875,-70.80078125,-40.0390625,0.0,1722283909.055435
-52.734375,-82.51953125,-71.77734375,-52.734375,0.0,1722283909.05923
-48.33984375,-77.63671875,-65.91796875,-47.8515625,0.0,1722283909.0630255
-36.1328125,-76.66015625,-66.40625,-39.0625,0.0,1722283909.0668206
-35.64453125,-82.03125,-69.82421875,-45.41015625,0.0,1722283909.070616
-38.57421875,-76.66015625,-65.91796875,-53.22265625,0.0,1722283909.0744112
-45.41015625,-71.77734375,-61.5234375,-55.6640625,0.0,1722283909.0782065
-44.921875,-75.68359375,-61.5234375,-48.828125,0.0,1722283909.0820017
-44.921875,-80.56640625,-64.453125,-41.9921875,0.0,1722283909.0857968
-40.0390625,-74.21875,-64.453125,-23.92578125,0.0,1722283909.0895922
-31.25,-71.2890625,-61.5234375,-40.0390625,0.0,1722283909.0933874
-23.4375,-67.3828125,-56.640625,-61.03515625,0.0,1722283909.0971828
-26.85546875,-61.03515625,-52.24609375,-41.015625,0.0,1722283909.1023295
-33.69140625,-62.5,-58.10546875,-26.3671875,0.0,1722283909.1061268
-8.7890625,-67.3828125,-64.453125,-18.06640625,0.0,1722283909.1099238
-19.04296875,-74.70703125,-63.96484375,-30.2734375,0.0,1722283909.113721
-57.6171875,-82.51953125,-64.94140625,-63.96484375,0.0,1722283909.1175182
-52.24609375,-82.51953125,-62.5,-57.12890625,0.0,1722283909.1213152
-35.15625,-80.078125,-51.26953125,-35.64453125,0.0,1722283909.1251125
-29.78515625,-81.0546875,-52.734375,-44.43359375,0.0,1722283909.1289096
-42.48046875,-89.84375,-61.5234375,-55.17578125,0.0,1722283909.1327066
-43.45703125,-83.0078125,-57.12890625,-51.7578125,0.0,1722283909.136504
-32.71484375,-74.21875,-55.6640625,-41.015625,0.0,1722283909.140301
-38.0859375,-76.171875,-62.5,-39.55078125,0.0,1722283909.1440983
-39.55078125,-81.54296875,-70.3125,-40.0390625,0.0,1722283909.149062
-32.71484375,-83.984375,-68.84765625,-33.203125,0.0,1722283909.1528606
-35.64453125,-79.1015625,-60.05859375,-36.1328125,0.0,1722283909.1566594
-40.52734375,-79.1015625,-60.05859375,-43.45703125,0.0,1722283909.160458
-31.73828125,-76.171875,-62.5,-40.0390625,0.0,1722283909.164257
-26.85546875,-72.265625,-56.640625,-32.71484375,0.0,1722283909.1680558
-28.80859375,-71.77734375,-46.875,-20.01953125,0.0,1722283909.1718545
-34.1796875,-78.61328125,-55.17578125,-26.85546875,0.0,1722283909.1756532
-40.0390625,-82.51953125,-64.94140625,-40.52734375,0.0,1722283909.179452
-32.2265625,-85.44921875,-57.12890625,-27.34375,0.0,1722283909.183251
-33.203125,-90.8203125,-57.6171875,-23.92578125,0.0,1722283909.1870496
-36.62109375,-85.9375,-61.03515625,-37.59765625,0.0,1722283909.1908484
-36.1328125,-76.171875,-56.15234375,-34.1796875,0.0,1722283909.1957169
-35.15625,-77.1484375,-52.24609375,-37.109375,0.0,1722283909.199517
-33.69140625,-82.03125,-53.7109375,-38.0859375,0.0,1722283909.2033172
-35.64453125,-83.49609375,-63.4765625,-31.25,0.0,1722283909.2071176
-29.78515625,-80.078125,-60.546875,-26.3671875,0.0,1722283909.2109177
-21.97265625,-68.84765625,-55.6640625,-21.97265625,0.0,1722283909.2147179
-25.390625,-72.75390625,-65.91796875,-40.0390625,0.0,1722283909.2185183
-31.25,-86.42578125,-73.2421875,-52.24609375,0.0,1722283909.2223184
-24.90234375,-79.1015625,-64.94140625,-43.9453125,0.0,1722283909.2261186
-34.66796875,-74.21875,-56.15234375,-49.8046875,0.0,1722283909.229919
-41.50390625,-76.171875,-60.05859375,-52.24609375,0.0,1722283909.233719
-36.62109375,-82.03125,-65.91796875,-47.36328125,0.0,1722283909.2375195
-31.25,-81.54296875,-62.98828125,-45.8984375,0.0,1722283909.2429187
-31.73828125,-78.61328125,-64.453125,-47.36328125,0.0,1722283909.2467213
-34.66796875,-86.42578125,-73.2421875,-45.8984375,0.0,1722283909.2505236
-37.59765625,-87.40234375,-73.2421875,-35.64453125,0.0,1722283909.2543259
-34.1796875,-77.63671875,-62.01171875,-27.83203125,0.0,1722283909.2581284
-25.390625,-76.66015625,-58.59375,-39.55078125,0.0,1722283909.2619307
-31.25,-84.47265625,-67.87109375,-57.12890625,0.0,1722283909.265733
-45.41015625,-84.9609375,-74.21875,-59.08203125,0.0,1722283909.2695355
-44.43359375,-80.56640625,-74.70703125,-45.8984375,0.0,1722283909.2733378
-36.62109375,-75.68359375,-74.21875,-38.0859375,0.0,1722283909.2771401
-44.43359375,-83.984375,-77.63671875,-57.6171875,0.0,1722283909.2809427
-43.45703125,-83.984375,-70.3125,-58.59375,0.0,1722283909.284745
-35.64453125,-81.0546875,-69.3359375,-37.109375,0.0,1722283909.2900736
-38.57421875,-86.9140625,-71.2890625,-38.57421875,0.0,1722283909.2938778
-36.1328125,-85.44921875,-68.359375,-41.015625,0.0,1722283909.2976823
-30.2734375,-79.58984375,-65.4296875,-39.55078125,0.0,1722283909.3014867
-38.0859375,-81.54296875,-60.05859375,-44.921875,0.0,1722283909.3052912
-30.76171875,-79.1015625,-59.08203125,-35.15625,0.0,1722283909.3090956
-16.11328125,-76.66015625,-58.10546875,-28.80859375,0.0,1722283909.3129
-26.85546875,-74.70703125,-57.6171875,-33.203125,0.0,1722283909.3167043
-29.78515625,-76.66015625,-56.640625,-30.76171875,0.0,1722283909.3205087
-36.1328125,-84.9609375,-63.96484375,-35.15625,0.0,1722283909.3243132
-45.41015625,-89.35546875,-70.3125,-44.43359375,0.0,1722283909.3281176
-34.66796875,-80.078125,-63.96484375,-31.73828125,0.0,1722283909.331922
-35.64453125,-72.265625,-62.5,-23.4375,0.0,1722283909.33711
-44.921875,-72.265625,-66.40625,-26.85546875,0.0,1722283909.3409162
-38.57421875,-69.82421875,-61.5234375,-23.92578125,0.0,1722283909.3447225
-23.92578125,-69.3359375,-56.15234375,-23.92578125,0.0,1722283909.3485286
-29.296875,-77.63671875,-59.08203125,-42.48046875,0.0,1722283909.352335
-36.1328125,-79.1015625,-62.01171875,-55.17578125,0.0,1722283909.356141
-38.0859375,-79.58984375,-64.453125,-35.15625,0.0,1722283909.3599472
-35.15625,-86.9140625,-61.03515625,-31.73828125,0.0,1722283909.3637536
-35.64453125,-81.54296875,-56.640625,-43.45703125,0.0,1722283909.3675597
-25.87890625,-77.1484375,-71.77734375,-32.2265625,0.0,1722283909.371366
5.859375,-74.21875,-67.3828125,-11.71875,0.0,1722283909.3751721
-16.11328125,-75.1953125,-44.921875,-32.2265625,0.0,1722283909.3789783
-49.8046875,-79.1015625,-43.45703125,-61.5234375,0.0,1722283909.3840144
-47.36328125,-77.1484375,-51.7578125,-66.89453125,0.0,1722283909.3878222
-47.36328125,-76.171875,-46.875,-57.12890625,0.0,1722283909.39163
-80.56640625,-78.61328125,-45.8984375,-60.546875,0.0,1722283909.3954377
-107.91015625,-86.42578125,-51.26953125,-72.75390625,0.0,1722283909.3992455
-119.62890625,-93.75,-46.875,-100.5859375,0.0,1722283909.4030533
-139.16015625,-92.7734375,-48.828125,-123.53515625,0.0,1722283909.406861
-139.6484375,-90.33203125,-35.15625,-119.62890625,0.0,1722283909.4106688
-145.01953125,-93.26171875,-31.25,-128.90625,0.0,1722283909.4144766
-173.33984375,-101.5625,-52.734375,-146.97265625,0.0,1722283909.4182844
-161.1328125,-100.5859375,-38.57421875,-140.13671875,0.0,1722283909.4220922
-146.97265625,-99.12109375,-31.73828125,-140.625,0.0,1722283909.4259
-154.78515625,-106.4453125,-50.78125,-147.94921875,0.0,1722283909.430864
-134.27734375,-106.4453125,-39.55078125,-117.1875,0.0,1722283909.4346733
-128.90625,-101.5625,-36.1328125,-110.83984375,0.0,1722283909.4384825
-125.0,-100.5859375,-50.29296875,-103.515625,0.0,1722283909.4422917
-106.93359375,-97.65625,-49.31640625,-88.37890625,0.0,1722283909.446101
-96.6796875,-100.5859375,-41.015625,-78.125,0.0,1722283909.4499102
-90.8203125,-98.6328125,-40.0390625,-67.3828125,0.0,1722283909.4537194
-88.8671875,-96.6796875,-44.43359375,-64.94140625,0.0,1722283909.4575286
-89.84375,-99.609375,-55.6640625,-71.77734375,0.0,1722283909.461338
-88.37890625,-99.12109375,-59.5703125,-84.47265625,0.0,1722283909.4651473
-71.77734375,-91.30859375,-59.08203125,-74.21875,0.0,1722283909.4689565
-58.59375,-84.47265625,-64.453125,-65.4296875,0.0,1722283909.4727657
-55.17578125,-86.9140625,-58.59375,-60.05859375,0.0,1722283909.477652
-47.36328125,-85.9375,-48.828125,-54.6875,0.0,1722283909.4814627
-39.55078125,-85.9375,-46.38671875,-51.26953125,0.0,1722283909.4852734
-42.96875,-88.37890625,-52.24609375,-40.0390625,0.0,1722283909.489084
-42.48046875,-83.49609375,-54.19921875,-47.36328125,0.0,1722283909.4928944
-43.45703125,-83.0078125,-49.31640625,-51.26953125,0.0,1722283909.496705
-36.62109375,-81.0546875,-50.78125,-24.90234375,0.0,1722283909.5005157
-26.3671875,-80.56640625,-56.640625,-16.6015625,0.0,1722283909.5043263
-36.62109375,-87.890625,-69.82421875,-36.62109375,0.0,1722283909.5081367
-36.62109375,-86.9140625,-73.2421875,-39.0625,0.0,1722283909.5119474
-34.66796875,-90.8203125,-69.82421875,-24.90234375,0.0,1722283909.515758
-41.9921875,-90.33203125,-60.05859375,-18.06640625,0.0,1722283909.5195687
-42.96875,-79.1015625,-59.5703125,-24.4140625,0.0,1722283909.5243611
-32.2265625,-73.2421875,-60.05859375,-41.015625,0.0,1722283909.528173
-31.73828125,-76.66015625,-54.19921875,-44.43359375,0.0,1722283909.5319848
-35.64453125,-78.125,-58.10546875,-38.57421875,0.0,1722283909.5357966
-33.69140625,-70.3125,-61.03515625,-34.66796875,0.0,1722283909.5396082
-28.3203125,-67.87109375,-58.10546875,-25.87890625,0.0,1722283909.54342
-22.4609375,-66.89453125,-54.19921875,-20.99609375,0.0,1722283909.547232
-26.85546875,-68.359375,-57.6171875,-27.83203125,0.0,1722283909.5510437
-28.3203125,-75.68359375,-61.03515625,-29.296875,0.0,1722283909.5548556
-24.90234375,-71.77734375,-58.59375,-24.4140625,0.0,1722283909.5586672
-23.4375,-67.87109375,-61.03515625,-24.90234375,0.0,1722283909.562479
-27.34375,-70.80078125,-63.4765625,-28.3203125,0.0,1722283909.5662909
-25.390625,-63.4765625,-56.640625,-24.4140625,0.0,1722283909.5710065
-19.53125,-60.05859375,-47.8515625,-21.484375,0.0,1722283909.5748196
-21.97265625,-63.4765625,-45.41015625,-22.4609375,0.0,1722283909.5786324
-19.04296875,-61.03515625,-42.96875,-20.01953125,0.0,1722283909.5824451
-9.27734375,-52.24609375,-39.55078125,-14.6484375,0.0,1722283909.5862582
0.0,-43.9453125,-29.78515625,-0.48828125,0.0,1722283909.590071
-5.859375,-45.41015625,-24.90234375,4.8828125,0.0,1722283909.593884
-10.25390625,-44.43359375,-27.34375,0.0,0.0,1722283909.5976968
-0.9765625,-39.55078125,-25.87890625,1.953125,0.0,1722283909.6015096
6.8359375,-34.1796875,-25.390625,6.8359375,0.0,1722283909.6053226
10.7421875,-30.76171875,-18.06640625,6.8359375,0.0,1722283909.6091354
12.20703125,-31.25,-15.13671875,8.7890625,0.0,1722283909.6129482
10.25390625,-31.73828125,-21.97265625,15.13671875,0.0,1722283909.6182506
0.9765625,-38.0859375,-28.80859375,15.625,0.0,1722283909.6220653
0.0,-46.875,-31.25,8.30078125,0.0,1722283909.6258798
1.953125,-47.8515625,-32.71484375,-1.953125,0.0,1722283909.6296945
-2.9296875,-40.0390625,-33.203125,-7.32421875,0.0,1722283909.6335092
-11.71875,-41.015625,-35.64453125,-10.25390625,0.0,1722283909.6373239
-19.53125,-50.78125,-42.48046875,-14.6484375,0.0,1722283909.6411386
-25.87890625,-53.22265625,-46.38671875,-20.99609375,0.0,1722283909.644953
-26.85546875,-51.26953125,-48.828125,-23.92578125,0.0,1722283909.6487677
-22.4609375,-60.546875,-49.8046875,-14.16015625,0.0,1722283909.6525824
-29.296875,-67.87109375,-56.15234375,-17.08984375,0.0,1722283909.656397
-28.80859375,-67.87109375,-52.24609375,-15.13671875,0.0,1722283909.6602118
-24.90234375,-70.80078125,-47.36328125,-20.01953125,0.0,1722283909.6653516
-30.76171875,-73.73046875,-58.59375,-31.25,0.0,1722283909.6691678
-32.2265625,-71.77734375,-67.3828125,-35.15625,0.0,1722283909.6729841
-32.71484375,-72.75390625,-67.3828125,-36.62109375,0.0,1722283909.6768003
-31.73828125,-74.21875,-60.05859375,-40.0390625,0.0,1722283909.6806164
-27.83203125,-70.80078125,-57.6171875,-54.19921875,0.0,1722283909.6844327
-32.71484375,-73.73046875,-56.640625,-62.98828125,0.0,1722283909.6882489
-31.25,-71.77734375,-59.08203125,-62.01171875,0.0,1722283909.692065
-15.13671875,-66.40625,-56.15234375,-41.015625,0.0,1722283909.6958814
-23.4375,-72.75390625,-59.08203125,-28.3203125,0.0,1722283909.6996975
-41.9921875,-77.63671875,-74.21875,-34.1796875,0.0,1722283909.7035136
-34.66796875,-71.77734375,-69.82421875,-28.80859375,0.0,1722283909.70733
-33.69140625,-69.3359375,-60.546875,-27.34375,0.0,1722283909.7123902
-37.109375,-73.2421875,-59.5703125,-22.94921875,0.0,1722283909.7162077
-28.80859375,-74.21875,-61.5234375,-23.92578125,0.0,1722283909.7200255
-38.0859375,-75.68359375,-65.4296875,-36.62109375,0.0,1722283909.723843
-51.7578125,-75.1953125,-65.91796875,-44.921875,0.0,1722283909.7276607
-37.109375,-70.3125,-64.453125,-48.828125,0.0,1722283909.7314785
-33.203125,-69.82421875,-60.546875,-45.8984375,0.0,1722283909.735296
-36.62109375,-71.77734375,-57.6171875,-25.87890625,0.0,1722283909.7391136
-38.0859375,-73.2421875,-61.03515625,-28.80859375,0.0,1722283909.7429314
-39.0625,-69.82421875,-62.98828125,-51.7578125,0.0,1722283909.746749
-35.15625,-66.89453125,-61.03515625,-55.17578125,0.0,1722283909.7505667
-38.0859375,-68.359375,-62.01171875,-55.6640625,0.0,1722283909.7543843
-29.296875,-68.84765625,-65.91796875,-49.31640625,0.0,1722283909.7593699
-26.3671875,-66.40625,-58.59375,-41.9921875,0.0,1722283909.7631888
-53.22265625,-64.453125,-48.828125,-54.6875,0.0,1722283909.7670078
-56.15234375,-66.40625,-50.29296875,-36.1328125,0.0,1722283909.7708268
-51.7578125,-67.3828125,-56.640625,-28.80859375,0.0,1722283909.7746458
-63.96484375,-68.359375,-64.453125,-55.17578125,0.0,1722283909.7784648
-62.5,-70.80078125,-63.4765625,-66.40625,0.0,1722283909.7822838
-64.453125,-73.2421875,-55.6640625,-67.87109375,0.0,1722283909.7861028
-78.125,-72.75390625,-56.15234375,-77.63671875,0.0,1722283909.7899218
-88.37890625,-71.2890625,-55.17578125,-94.23828125,0.0,1722283909.7937407
-76.66015625,-64.94140625,-53.7109375,-88.37890625,0.0,1722283909.7975597
-70.3125,-62.98828125,-58.10546875,-79.58984375,0.0,1722283909.8013787
-72.75390625,-63.96484375,-61.5234375,-74.21875,0.0,1722283909.8062627
-62.98828125,-69.3359375,-63.96484375,-70.80078125,0.0,1722283909.810083
-52.24609375,-71.77734375,-57.12890625,-57.12890625,0.0,1722283909.813903
-49.31640625,-74.70703125,-56.640625,-44.921875,0.0,1722283909.8177233
-46.875,-75.1953125,-57.12890625,-38.57421875,0.0,1722283909.8215435
-42.96875,-67.3828125,-48.33984375,-27.83203125,0.0,1722283909.8253636
-42.48046875,-66.89453125,-43.45703125,-29.296875,0.0,1722283909.8291838
-34.66796875,-66.89453125,-43.9453125,-23.92578125,0.0,1722283909.833004
-42.96875,-67.87109375,-55.17578125,-38.0859375,0.0,1722283909.8368242
-55.17578125,-68.359375,-63.4765625,-56.15234375,0.0,1722283909.8406444
-51.7578125,-72.265625,-61.03515625,-50.29296875,0.0,1722283909.8444645
-46.875,-76.66015625,-58.10546875,-39.0625,0.0,1722283909.8482847
-45.41015625,-72.75390625,-59.08203125,-37.109375,0.0,1722283909.8530853
-47.36328125,-67.87109375,-60.546875,-39.55078125,0.0,1722283909.8569067
-45.41015625,-71.77734375,-57.6171875,-37.109375,0.0,1722283909.8607278
-43.45703125,-75.68359375,-55.17578125,-42.48046875,0.0,1722283909.8645492
-41.015625,-80.56640625,-57.6171875,-51.26953125,0.0,1722283909.8683703
-44.921875,-72.75390625,-55.6640625,-40.52734375,0.0,1722283909.8721917
-48.33984375,-59.5703125,-46.38671875,-15.625,0.0,1722283909.8760128
-39.55078125,-61.03515625,-48.828125,-20.01953125,0.0,1722283909.8798342
-41.50390625,-65.4296875,-62.98828125,-44.921875,0.0,1722283909.8836555
-38.57421875,-65.4296875,-59.5703125,-52.24609375,0.0,1722283909.8874767
-46.875,-63.96484375,-58.59375,-47.8515625,0.0,1722283909.891298
-54.6875,-69.82421875,-59.08203125,-41.9921875,0.0,1722283909.8951192
-49.8046875,-69.3359375,-56.15234375,-47.8515625,0.0,1722283909.8998547
-43.45703125,-64.453125,-59.5703125,-51.7578125,0.0,1722283909.903677
-47.36328125,-65.91796875,-61.5234375,-42.48046875,0.0,1722283909.9074993
-39.55078125,-66.89453125,-57.12890625,-33.69140625,0.0,1722283909.9113216
-20.5078125,-66.40625,-50.29296875,-35.64453125,0.0,1722283909.9151437
-28.80859375,-62.98828125,-55.17578125,-41.50390625,0.0,1722283909.918966
-30.76171875,-63.4765625,-48.828125,-21.484375,0.0,1722283909.9227884
-35.15625,-64.94140625,-44.921875,-15.625,0.0,1722283909.9266107
-41.50390625,-64.453125,-49.31640625,-34.66796875,0.0,1722283909.9304328
-41.015625,-67.3828125,-53.22265625,-38.57421875,0.0,1722283909.9342551
-53.7109375,-72.265625,-57.12890625,-35.15625,0.0,1722283909.9380774
-48.828125,-67.87109375,-56.15234375,-38.0859375,0.0,1722283909.9418998
-37.109375,-62.01171875,-55.17578125,-40.0390625,0.0,1722283909.9466038
-39.55078125,-65.91796875,-51.7578125,-37.109375,0.0,1722283909.950427
-49.31640625,-69.82421875,-56.15234375,-38.0859375,0.0,1722283909.9542503
-55.6640625,-67.3828125,-64.453125,-53.22265625,0.0,1722283909.9580734
-55.17578125,-66.40625,-62.01171875,-62.98828125,0.0,1722283909.9618967
-44.43359375,-68.359375,-49.8046875,-40.0390625,0.0,1722283909.96572
-43.45703125,-73.2421875,-52.734375,-42.48046875,0.0,1722283909.9695432
-50.29296875,-66.40625,-62.01171875,-50.78125,0.0,1722283909.9733665
-41.50390625,-62.5,-55.6640625,-41.9921875,0.0,1722283909.9771895
-32.2265625,-70.80078125,-53.7109375,-43.45703125,0.0,1722283909.9810128
-36.1328125,-67.3828125,-66.40625,-48.828125,0.0,1722283909.984836
-33.69140625,-62.01171875,-63.4765625,-36.1328125,0.0,1722283909.9886594
-21.97265625,-65.4296875,-46.875,-20.01953125,0.0,1722283909.993754
-15.13671875,-62.5,-49.8046875,-28.80859375,0.0,1722283909.9975786
-13.671875,-62.5,-57.12890625,-37.59765625,0.0,1722283910.001403
-22.94921875,-69.3359375,-54.6875,-33.203125,0.0,1722283910.0052278
-26.3671875,-66.89453125,-47.8515625,-20.01953125,0.0,1722283910.0090523
-19.53125,-64.94140625,-48.828125,-20.01953125,0.0,1722283910.012877
-20.5078125,-64.94140625,-54.19921875,-32.2265625,0.0,1722283910.0167015
-28.80859375,-64.453125,-56.15234375,-43.9453125,0.0,1722283910.0205262
-26.85546875,-65.91796875,-51.7578125,-43.9453125,0.0,1722283910.0243506
-25.87890625,-66.89453125,-54.19921875,-41.015625,0.0,1722283910.028175
-36.62109375,-68.359375,-60.05859375,-54.19921875,0.0,1722283910.0319998
-40.52734375,-66.89453125,-59.5703125,-56.640625,0.0,1722283910.0358243
-40.0390625,-63.96484375,-59.5703125,-46.875,0.0,1722283910.0408301
-35.64453125,-65.4296875,-61.03515625,-54.19921875,0.0,1722283910.0446558
-38.0859375,-67.87109375,-62.01171875,-51.7578125,0.0,1722283910.0484817
-40.52734375,-65.4296875,-64.94140625,-36.62109375,0.0,1722283910.0523076
-29.78515625,-59.5703125,-58.59375,-28.80859375,0.0,1722283910.0561335
-22.4609375,-63.96484375,-52.24609375,-21.97265625,0.0,1722283910.0599592
-29.78515625,-67.87109375,-54.6875,-31.25,0.0,1722283910.063785
-33.69140625,-65.91796875,-52.734375,-37.59765625,0.0,1722283910.067611
-24.4140625,-60.546875,-44.43359375,-30.2734375,0.0,1722283910.0714366
-26.85546875,-59.5703125,-49.31640625,-42.48046875,0.0,1722283910.0752625
-31.25,-67.3828125,-56.640625,-47.36328125,0.0,1722283910.0790884
-22.94921875,-68.359375,-50.29296875,-28.3203125,0.0,1722283910.082914
-29.78515625,-68.359375,-51.26953125,-33.69140625,0.0,1722283910.0879014
-44.921875,-67.87109375,-53.7109375,-42.48046875,0.0,1722283910.0917284
-40.52734375,-67.3828125,-53.7109375,-27.34375,0.0,1722283910.0955555
-34.1796875,-73.2421875,-52.734375,-26.85546875,0.0,1722283910.0993824
-41.015625,-73.73046875,-55.17578125,-45.8984375,0.0,1722283910.1032095
-42.48046875,-70.80078125,-55.17578125,-52.734375,0.0,1722283910.1070366
-36.62109375,-71.77734375,-54.6875,-56.640625,0.0,1722283910.1108637
-36.62109375,-74.70703125,-56.15234375,-52.24609375,0.0,1722283910.1146905
-43.9453125,-79.58984375,-55.6640625,-46.38671875,0.0,1722283910.1185176
-55.17578125,-80.078125,-66.89453125,-57.6171875,0.0,1722283910.1223447
-41.015625,-69.82421875,-69.82421875,-41.015625,0.0,1722283910.1261718
-12.20703125,-63.96484375,-58.59375,-16.11328125,0.0,1722283910.1299987
-18.06640625,-71.2890625,-55.17578125,-25.87890625,0.0,1722283910.134914
-59.08203125,-82.51953125,-59.5703125,-47.8515625,0.0,1722283910.1387422
-67.87109375,-81.54296875,-54.19921875,-51.7578125,0.0,1722283910.1425703
-50.78125,-76.66015625,-43.45703125,-43.45703125,0.0,1722283910.1463985
-48.33984375,-79.58984375,-41.9921875,-41.9921875,0.0,1722283910.1502266
-42.48046875,-80.56640625,-43.9453125,-36.62109375,0.0,1722283910.1540549
-40.52734375,-77.1484375,-51.7578125,-32.2265625,0.0,1722283910.157883
-39.55078125,-72.265625,-49.31640625,-49.8046875,0.0,1722283910.1617112
-37.109375,-72.265625,-47.36328125,-49.8046875,0.0,1722283910.1655393
-43.9453125,-78.61328125,-55.17578125,-43.9453125,0.0,1722283910.1693676
-42.48046875,-73.73046875,-51.7578125,-37.59765625,0.0,1722283910.1731956
-30.2734375,-74.21875,-47.36328125,-24.90234375,0.0,1722283910.177024
-22.94921875,-77.63671875,-44.921875,-7.8125,0.0,1722283910.181811
-28.80859375,-71.2890625,-48.828125,-12.6953125,0.0,1722283910.1856403
-29.296875,-70.3125,-47.36328125,-29.78515625,0.0,1722283910.1894693
-23.92578125,-64.94140625,-44.921875,-25.390625,0.0,1722283910.1932986
-22.4609375,-60.05859375,-51.7578125,-20.01953125,0.0,1722283910.1971276
-29.296875,-65.91796875,-48.33984375,-26.85546875,0.0,1722283910.2009568
-26.85546875,-64.453125,-45.41015625,-26.85546875,0.0,1722283910.204786
-16.11328125,-56.640625,-44.43359375,-10.7421875,0.0,1722283910.208615
-27.34375,-58.59375,-51.7578125,-14.6484375,0.0,1722283910.2124443
-22.94921875,-54.19921875,-55.17578125,-19.04296875,0.0,1722283910.2162733
-4.8828125,-48.33984375,-46.38671875,-9.27734375,0.0,1722283910.2201025
-8.7890625,-53.22265625,-45.8984375,-10.25390625,0.0,1722283910.2239316
-11.23046875,-59.5703125,-46.875,-17.578125,0.0,1722283910.228673
-11.23046875,-58.59375,-45.8984375,-14.6484375,0.0,1722283910.232503
-8.7890625,-59.5703125,-52.24609375,-5.859375,0.0,1722283910.236333
-14.16015625,-65.4296875,-52.734375,-14.16015625,0.0,1722283910.240163
-25.87890625,-66.89453125,-43.45703125,-23.92578125,0.0,1722283910.243993
-21.97265625,-67.87109375,-43.9453125,-25.390625,0.0,1722283910.2478232
-17.578125,-68.359375,-46.875,-14.6484375,0.0,1722283910.2516532
-24.90234375,-62.5,-51.7578125,-10.7421875,0.0,1722283910.2554832
-32.71484375,-62.98828125,-60.05859375,-24.90234375,0.0,1722283910.2593133
-22.4609375,-62.01171875,-51.26953125,-22.94921875,0.0,1722283910.2631433
-23.4375,-61.5234375,-42.48046875,-15.625,0.0,1722283910.2669735
-26.85546875,-63.4765625,-47.36328125,-9.765625,0.0,1722283910.2708035
-29.296875,-67.3828125,-54.6875,-15.13671875,0.0,1722283910.2754683
-30.2734375,-66.40625,-48.828125,-14.6484375,0.0,1722283910.279299
-32.2265625,-60.546875,-39.0625,-3.41796875,0.0,1722283910.28313
-36.62109375,-65.4296875,-45.41015625,-10.7421875,0.0,1722283910.2869608
-32.2265625,-68.84765625,-52.734375,-23.92578125,0.0,1722283910.2907917
-29.296875,-61.5234375,-44.43359375,-12.6953125,0.0,1722283910.2946227
-25.390625,-61.5234375,-39.55078125,-6.34765625,0.0,1722283910.2984536
-20.01953125,-63.96484375,-47.36328125,-14.6484375,0.0,1722283910.3022845
-18.5546875,-64.94140625,-47.8515625,-14.6484375,0.0,1722283910.3061152
-27.34375,-69.82421875,-46.875,-16.11328125,0.0,1722283910.309946
-31.73828125,-65.91796875,-50.78125,-24.4140625,0.0,1722283910.313777
-26.85546875,-68.359375,-51.7578125,-11.71875,0.0,1722283910.3176079
13.18359375,-67.3828125,-39.55078125,43.45703125,0.0,1722283910.322228
14.6484375,-54.19921875,-35.15625,24.90234375,0.0,1722283910.3260596
-16.11328125,-47.36328125,-44.921875,-25.390625,0.0,1722283910.3298912
-8.7890625,-50.29296875,-50.29296875,-19.53125,0.0,1722283910.3337228
8.7890625,-51.7578125,-55.6640625,-11.71875,0.0,1722283910.3375545
25.390625,-48.828125,-54.19921875,3.41796875,0.0,1722283910.341386
38.0859375,-47.36328125,-56.640625,7.32421875,0.0,1722283910.3452177
37.109375,-48.33984375,-66.40625,2.44140625,0.0,1722283910.3490493
48.828125,-38.57421875,-67.87109375,19.53125,0.0,1722283910.3528812
54.6875,-32.71484375,-66.89453125,36.62109375,0.0,1722283910.3567128
52.734375,-36.62109375,-69.3359375,35.15625,0.0,1722283910.3605444
57.6171875,-34.66796875,-74.70703125,31.25,0.0,1722283910.364376
67.3828125,-30.2734375,-65.91796875,41.9921875,0.0,1722283910.3693519
78.61328125,-25.390625,-67.3828125,56.15234375,0.0,1722283910.3731847
70.80078125,-26.3671875,-74.21875,55.6640625,0.0,1722283910.3770175
61.03515625,-26.85546875,-71.77734375,54.6875,0.0,1722283910.3808503
72.75390625,-29.296875,-69.82421875,54.6875,0.0,1722283910.3846831
84.47265625,-31.73828125,-66.40625,46.38671875,0.0,1722283910.3885157
64.94140625,-24.90234375,-62.98828125,31.25,0.0,1722283910.3923485
49.8046875,-26.3671875,-65.4296875,25.87890625,0.0,1722283910.3961813
50.29296875,-29.78515625,-64.453125,24.90234375,0.0,1722283910.4000142
41.015625,-29.78515625,-58.59375,31.73828125,0.0,1722283910.4038467
26.85546875,-40.52734375,-64.453125,28.80859375,0.0,1722283910.4076796
30.2734375,-38.0859375,-63.96484375,20.5078125,0.0,1722283910.4115124
38.57421875,-29.78515625,-57.6171875,20.5078125,0.0,1722283910.4163952
32.2265625,-31.25,-59.5703125,12.6953125,0.0,1722283910.420229
32.71484375,-39.0625,-58.10546875,15.625,0.0,1722283910.4240627
42.96875,-37.109375,-50.29296875,22.94921875,0.0,1722283910.4278965
37.59765625,-35.64453125,-54.19921875,17.578125,0.0,1722283910.4317303
20.99609375,-38.0859375,-58.10546875,6.34765625,0.0,1722283910.435564
6.34765625,-38.57421875,-61.5234375,-10.25390625,0.0,1722283910.4393978
1.953125,-40.52734375,-62.5,-8.30078125,0.0,1722283910.4432316
12.6953125,-32.71484375,-47.8515625,7.8125,0.0,1722283910.4470654
9.765625,-39.55078125,-46.875,10.25390625,0.0,1722283910.4508991
-4.8828125,-51.26953125,-56.640625,3.90625,0.0,1722283910.454733
-5.859375,-50.78125,-49.8046875,-2.44140625,0.0,1722283910.4585667
-4.8828125,-51.26953125,-54.6875,-17.08984375,0.0,1722283910.4633977
3.41796875,-53.22265625,-56.15234375,-15.625,0.0,1722283910.4672325
3.90625,-56.15234375,-56.640625,-10.25390625,0.0,1722283910.4710672
-10.7421875,-52.734375,-55.17578125,-21.484375,0.0,1722283910.474902
-9.27734375,-50.29296875,-47.8515625,-15.13671875,0.0,1722283910.4787366
1.953125,-52.24609375,-49.31640625,-14.6484375,0.0,1722283910.4825714
-1.953125,-54.6875,-55.6640625,-16.11328125,0.0,1722283910.486406
-5.37109375,-60.546875,-52.24609375,-1.46484375,0.0,1722283910.4902408
-3.41796875,-57.12890625,-44.43359375,-0.9765625,0.0,1722283910.4940755
-15.625,-56.640625,-52.24609375,-19.53125,0.0,1722283910.4979103
-18.06640625,-53.7109375,-56.640625,-27.83203125,0.0,1722283910.501745
-20.5078125,-52.734375,-48.33984375,-20.01953125,0.0,1722283910.5055795
-20.5078125,-50.29296875,-46.38671875,-19.04296875,0.0,1722283910.510335
-20.99609375,-55.6640625,-51.26953125,-22.94921875,0.0,1722283910.5141706
-27.34375,-66.40625,-48.33984375,-19.53125,0.0,1722283910.518006
-12.20703125,-54.6875,-41.9921875,-20.99609375,0.0,1722283910.5218418
-12.20703125,-47.8515625,-47.36328125,-20.99609375,0.0,1722283910.5256772
-26.3671875,-50.29296875,-48.828125,-29.296875,0.0,1722283910.529513
-21.484375,-43.9453125,-43.9453125,-37.109375,0.0,1722283910.5333486
-12.6953125,-41.9921875,-36.62109375,-24.4140625,0.0,1722283910.537184
-20.5078125,-47.36328125,-35.15625,-22.94921875,0.0,1722283910.5410197
-35.64453125,-52.734375,-45.8984375,-41.50390625,0.0,1722283910.544855
-30.2734375,-48.33984375,-46.38671875,-39.0625,0.0,1722283910.5486908
-27.83203125,-47.36328125,-43.9453125,-30.76171875,0.0,1722283910.5525262
-32.2265625,-52.734375,-45.41015625,-36.1328125,0.0,1722283910.5572124
-41.015625,-61.03515625,-49.8046875,-41.9921875,0.0,1722283910.5610487
-37.109375,-63.4765625,-43.45703125,-35.15625,0.0,1722283910.564885
-30.76171875,-59.08203125,-41.50390625,-28.80859375,0.0,1722283910.5687213
-35.15625,-54.19921875,-47.36328125,-32.71484375,0.0,1722283910.5725577
-31.25,-54.19921875,-46.38671875,-31.73828125,0.0,1722283910.576394
-24.4140625,-54.19921875,-42.96875,-23.4375,0.0,1722283910.5802305
-20.01953125,-51.26953125,-40.0390625,-18.06640625,0.0,1722283910.5840669
-20.5078125,-49.31640625,-46.875,-14.16015625,0.0,1722283910.5879033
-17.08984375,-45.41015625,-50.29296875,-17.08984375,0.0,1722283910.5917394
-20.99609375,-46.875,-46.875,-23.92578125,0.0,1722283910.5955758
-28.3203125,-53.7109375,-41.50390625,-21.484375,0.0,1722283910.5994122
-29.78515625,-56.640625,-44.43359375,-23.4375,0.0,1722283910.6044886
-27.83203125,-56.640625,-44.43359375,-22.94921875,0.0,1722283910.608326
-19.53125,-56.640625,-41.015625,-24.4140625,0.0,1722283910.6121635
-20.99609375,-54.6875,-47.36328125,-26.85546875,0.0,1722283910.6160011
-25.87890625,-55.6640625,-50.78125,-26.3671875,0.0,1722283910.6198385
-27.34375,-63.96484375,-48.828125,-30.2734375,0.0,1722283910.623676
-29.78515625,-60.546875,-46.875,-35.64453125,0.0,1722283910.6275134
-24.90234375,-48.828125,-45.8984375,-44.43359375,0.0,1722283910.631351
-31.25,-58.10546875,-46.875,-47.8515625,0.0,1722283910.6351886
-40.52734375,-59.08203125,-44.921875,-37.59765625,0.0,1722283910.639026
-42.48046875,-52.734375,-45.8984375,-40.52734375,0.0,1722283910.6428635
-48.33984375,-54.6875,-50.78125,-36.1328125,0.0,1722283910.646701
-42.96875,-57.12890625,-51.7578125,-30.2734375,0.0,1722283910.651275
-36.62109375,-53.22265625,-44.921875,-20.5078125,0.0,1722283910.6551132
-45.41015625,-54.19921875,-43.45703125,-17.578125,0.0,1722283910.6589513
-48.828125,-52.734375,-43.45703125,-23.92578125,0.0,1722283910.6627896
-41.50390625,-49.8046875,-45.41015625,-16.11328125,0.0,1722283910.6666276
-34.66796875,-47.8515625,-45.41015625,-22.94921875,0.0,1722283910.6704657
-33.69140625,-49.8046875,-45.8984375,-26.85546875,0.0,1722283910.674304
-42.48046875,-57.12890625,-54.19921875,-22.4609375,0.0,1722283910.678142
-41.015625,-57.12890625,-53.7109375,-36.62109375,0.0,1722283910.6819804
-29.78515625,-54.19921875,-49.8046875,-39.55078125,0.0,1722283910.6858184
-29.78515625,-50.29296875,-51.26953125,-35.64453125,0.0,1722283910.6896567
-35.15625,-50.78125,-56.15234375,-35.15625,0.0,1722283910.6934948
-38.57421875,-51.7578125,-52.24609375,-31.25,0.0,1722283910.697962
-33.69140625,-52.734375,-47.8515625,-37.109375,0.0,1722283910.7018008
-32.71484375,-58.59375,-47.36328125,-40.0390625,0.0,1722283910.7056396
-37.109375,-56.640625,-44.43359375,-35.15625,0.0,1722283910.7094781
-31.25,-51.26953125,-45.41015625,-31.73828125,0.0,1722283910.713317
-16.6015625,-49.31640625,-42.96875,-30.76171875,0.0,1722283910.7171557
-22.94921875,-52.734375,-42.96875,-24.90234375,0.0,1722283910.7209945
-33.69140625,-56.15234375,-46.38671875,-16.6015625,0.0,1722283910.724833
-22.94921875,-53.22265625,-41.9921875,-2.9296875,0.0,1722283910.7286718
-27.83203125,-53.7109375,-40.0390625,-4.8828125,0.0,1722283910.7325106
-37.109375,-54.19921875,-47.36328125,-24.90234375,0.0,1722283910.7363493
-43.9453125,-57.6171875,-59.5703125,-39.55078125,0.0,1722283910.7401881
-38.0859375,-55.6640625,-60.05859375,-30.2734375,0.0,1722283910.7450252
-17.08984375,-50.78125,-53.22265625,-11.23046875,0.0,1722283910.748865
-16.11328125,-52.734375,-46.38671875,-18.5546875,0.0,1722283910.7527044
-42.48046875,-57.12890625,-42.48046875,-45.41015625,0.0,1722283910.756544
-50.29296875,-57.6171875,-37.59765625,-48.33984375,0.0,1722283910.7603836
-32.71484375,-55.17578125,-34.1796875,-28.3203125,0.0,1722283910.7642233
-32.71484375,-59.08203125,-39.55078125,-21.97265625,0.0,1722283910.7680628
-33.203125,-60.546875,-42.48046875,-37.109375,0.0,1722283910.7719026
-33.69140625,-57.6171875,-42.48046875,-37.109375,0.0,1722283910.775742
-47.36328125,-61.03515625,-43.45703125,-34.1796875,0.0,1722283910.7795818
-46.875,-62.5,-49.8046875,-34.66796875,0.0,1722283910.7834213
-42.48046875,-62.5,-45.8984375,-36.1328125,0.0,1722283910.787261
-32.2265625,-60.546875,-39.55078125,-33.69140625,0.0,1722283910.7920468
-23.4375,-57.12890625,-39.0625,-25.390625,0.0,1722283910.7958872
-35.15625,-55.17578125,-36.1328125,-25.87890625,0.0,1722283910.7997277
-40.0390625,-57.12890625,-38.0859375,-21.484375,0.0,1722283910.8035681
-40.0390625,-63.96484375,-42.48046875,-16.11328125,0.0,1722283910.8074086
-35.15625,-58.59375,-43.9453125,-25.87890625,0.0,1722283910.811249
-35.15625,-54.19921875,-41.015625,-38.0859375,0.0,1722283910.8150895
-32.71484375,-59.08203125,-44.921875,-41.50390625,0.0,1722283910.81893
-20.5078125,-56.640625,-43.9453125,-21.97265625,0.0,1722283910.8227704
-23.92578125,-64.453125,-43.9453125,-23.92578125,0.0,1722283910.8266108
-34.1796875,-68.84765625,-46.38671875,-32.2265625,0.0,1722283910.8304513
-29.296875,-55.17578125,-38.57421875,-29.296875,0.0,1722283910.8342917
-30.76171875,-56.15234375,-36.62109375,-37.109375,0.0,1722283910.8390076
-39.0625,-62.5,-39.0625,-35.64453125,0.0,1722283910.8428488
-38.0859375,-62.01171875,-41.9921875,-42.96875,0.0,1722283910.84669
-41.015625,-58.10546875,-39.55078125,-36.1328125,0.0,1722283910.850531
-48.33984375,-54.6875,-43.45703125,-28.80859375,0.0,1722283910.8543725
-39.0625,-54.19921875,-49.31640625,-33.69140625,0.0,1722283910.8582137
-31.25,-54.19921875,-40.52734375,-23.4375,0.0,1722283910.8620548
-43.45703125,-56.640625,-38.0859375,-24.90234375,0.0,1722283910.865896
-39.55078125,-58.59375,-38.0859375,-32.2265625,0.0,1722283910.8697371
-41.015625,-62.5,-50.29296875,-39.55078125,0.0,1722283910.8735783
-46.38671875,-65.4296875,-55.6640625,-41.9921875,0.0,1722283910.8774197
-39.0625,-63.4765625,-47.8515625,-35.64453125,0.0,1722283910.8812609
-29.78515625,-59.08203125,-51.7578125,-26.85546875,0.0,1722283910.8859673
-34.1796875,-61.5234375,-56.15234375,-16.11328125,0.0,1722283910.8898091
-42.48046875,-59.08203125,-59.08203125,-28.80859375,0.0,1722283910.893651
-31.25,-51.7578125,-61.5234375,-34.1796875,0.0,1722283910.8974931
-19.04296875,-52.24609375,-54.19921875,-22.94921875,0.0,1722283910.901335
-22.4609375,-49.8046875,-43.45703125,-37.109375,0.0,1722283910.9051769
-29.78515625,-53.7109375,-43.9453125,-42.96875,0.0,1722283910.9090188
-16.6015625,-52.734375,-41.50390625,-35.15625,0.0,1722283910.9128609
-13.18359375,-47.36328125,-50.78125,-33.69140625,0.0,1722283910.9167027
-22.94921875,-60.546875,-59.5703125,-38.57421875,0.0,1722283910.9205446
-27.34375,-66.40625,-46.38671875,-36.62109375,0.0,1722283910.9243867
-32.71484375,-52.734375,-36.62109375,-19.04296875,0.0,1722283910.9282286
-31.25,-45.8984375,-38.57421875,-15.625,0.0,1722283910.9328191
-40.52734375,-49.31640625,-42.96875,-28.3203125,0.0,1722283910.9366617
-50.29296875,-53.7109375,-39.0625,-28.3203125,0.0,1722283910.9405043
-47.8515625,-50.78125,-40.0390625,-27.83203125,0.0,1722283910.944347
-41.9921875,-49.31640625,-44.921875,-37.109375,0.0,1722283910.9481895
-40.52734375,-50.78125,-41.015625,-40.52734375,0.0,1722283910.952032
-42.96875,-50.78125,-40.52734375,-40.0390625,0.0,1722283910.9558747
-35.15625,-53.7109375,-44.43359375,-32.2265625,0.0,1722283910.9597173
-38.0859375,-59.5703125,-52.24609375,-38.0859375,0.0,1722283910.9635599
-41.50390625,-58.59375,-56.640625,-41.015625,0.0,1722283910.9674022
-42.96875,-57.12890625,-49.8046875,-36.1328125,0.0,1722283910.9712448
-47.36328125,-53.7109375,-45.8984375,-43.45703125,0.0,1722283910.9750874
-41.50390625,-51.26953125,-48.33984375,-45.8984375,0.0,1722283910.979649
-32.71484375,-48.33984375,-47.8515625,-33.69140625,0.0,1722283910.9834921
-25.87890625,-49.8046875,-45.41015625,-20.5078125,0.0,1722283910.9873354
-26.3671875,-54.6875,-50.78125,-28.80859375,0.0,1722283910.9911785
-29.296875,-52.24609375,-49.8046875,-31.73828125,0.0,1722283910.9950218
-28.3203125,-50.78125,-43.45703125,-33.203125,0.0,1722283910.998865
-14.16015625,-51.26953125,-44.43359375,-20.01953125,0.0,1722283911.0027082
-4.8828125,-49.8046875,-45.41015625,0.0,0.0,1722283911.0065513
-29.78515625,-54.6875,-47.36328125,-27.83203125,0.0,1722283911.0103946
-39.0625,-59.5703125,-42.48046875,-40.0390625,0.0,1722283911.0142376
-38.57421875,-60.05859375,-44.921875,-39.0625,0.0,1722283911.018081
-43.45703125,-60.546875,-47.36328125,-40.0390625,0.0,1722283911.021924
-52.24609375,-63.4765625,-40.52734375,-43.9453125,0.0,1722283911.0267854
-60.05859375,-60.05859375,-34.66796875,-41.015625,0.0,1722283911.0306294
-59.08203125,-59.08203125,-37.59765625,-43.45703125,0.0,1722283911.0344734
-54.19921875,-63.4765625,-46.38671875,-51.7578125,0.0,1722283911.0383174
-45.41015625,-65.4296875,-47.8515625,-48.33984375,0.0,1722283911.0421615
-38.0859375,-61.5234375,-44.43359375,-54.19921875,0.0,1722283911.0460055
-28.3203125,-60.05859375,-38.0859375,-39.0625,0.0,1722283911.0498495
-34.1796875,-62.98828125,-40.52734375,-29.296875,0.0,1722283911.0536935
-39.55078125,-63.96484375,-51.26953125,-25.87890625,0.0,1722283911.0575376
-33.203125,-60.05859375,-45.8984375,-17.08984375,0.0,1722283911.0613816
-28.80859375,-56.15234375,-39.0625,-24.4140625,0.0,1722283911.0652256
-26.3671875,-61.03515625,-42.48046875,-27.83203125,0.0,1722283911.0690696
-30.76171875,-62.01171875,-42.48046875,-14.16015625,0.0,1722283911.0734835
-28.3203125,-50.78125,-42.96875,-5.859375,0.0,1722283911.077328
-32.2265625,-52.24609375,-45.8984375,-10.25390625,0.0,1722283911.0811725
-35.64453125,-53.22265625,-49.8046875,-35.64453125,0.0,1722283911.085017
-37.109375,-48.828125,-52.734375,-47.8515625,0.0,1722283911.0888615
-40.52734375,-49.31640625,-48.828125,-36.62109375,0.0,1722283911.092706
-38.0859375,-54.19921875,-46.875,-27.83203125,0.0,1722283911.0965505
-35.64453125,-58.10546875,-50.29296875,-35.64453125,0.0,1722283911.100395
-38.57421875,-58.59375,-51.26953125,-46.38671875,0.0,1722283911.1042395
-31.73828125,-56.640625,-49.8046875,-39.0625,0.0,1722283911.108084
-36.62109375,-53.22265625,-49.8046875,-37.109375,0.0,1722283911.1119285
-43.45703125,-52.734375,-49.8046875,-39.0625,0.0,1722283911.115773
-31.25,-49.31640625,-48.33984375,-17.08984375,0.0,1722283911.1205359
-32.71484375,-53.7109375,-50.78125,-17.08984375,0.0,1722283911.124381
-37.109375,-60.05859375,-51.7578125,-35.64453125,0.0,1722283911.1282263
-34.66796875,-60.546875,-55.17578125,-43.9453125,0.0,1722283911.1320715
-37.109375,-58.59375,-53.22265625,-38.0859375,0.0,1722283911.1359167
-37.59765625,-64.453125,-49.31640625,-38.0859375,0.0,1722283911.1397622
-33.69140625,-69.3359375,-55.17578125,-32.2265625,0.0,1722283911.1436074
-29.78515625,-60.05859375,-49.31640625,-25.390625,0.0,1722283911.1474526
-31.73828125,-58.10546875,-44.43359375,-30.2734375,0.0,1722283911.1512978
-36.62109375,-62.98828125,-46.38671875,-17.08984375,0.0,1722283911.155143
-43.9453125,-62.5,-48.828125,-28.80859375,0.0,1722283911.1589882
-39.0625,-54.19921875,-45.8984375,-50.29296875,0.0,1722283911.1628337
-28.80859375,-50.78125,-43.45703125,-51.26953125,0.0,1722283911.1675375
-25.390625,-54.19921875,-43.9453125,-53.7109375,0.0,1722283911.1713836
-23.4375,-55.17578125,-43.9453125,-43.45703125,0.0,1722283911.1752295
-25.87890625,-55.17578125,-41.015625,-40.0390625,0.0,1722283911.1790755
-28.80859375,-57.12890625,-38.0859375,-43.9453125,0.0,1722283911.1829214
-30.76171875,-55.6640625,-41.50390625,-36.62109375,0.0,1722283911.1867673
-42.96875,-54.6875,-46.875,-33.69140625,0.0,1722283911.1906133
-45.8984375,-64.453125,-49.31640625,-38.0859375,0.0,1722283911.1944592
-37.59765625,-59.5703125,-44.43359375,-30.76171875,0.0,1722283911.1983051
-32.71484375,-52.24609375,-42.48046875,-26.3671875,0.0,1722283911.202151
-42.48046875,-56.640625,-48.33984375,-35.64453125,0.0,1722283911.205997
-44.921875,-57.12890625,-47.36328125,-37.109375,0.0,1722283911.209843
-40.0390625,-58.59375,-46.875,-32.2265625,0.0,1722283911.2144907
-44.43359375,-62.01171875,-50.78125,-41.50390625,0.0,1722283911.2183373
-50.78125,-58.10546875,-43.9453125,-30.2734375,0.0,1722283911.222184
-47.36328125,-54.19921875,-42.48046875,-9.765625,0.0,1722283911.2260306
-36.1328125,-51.26953125,-41.50390625,-21.97265625,0.0,1722283911.229877
-24.4140625,-45.8984375,-37.59765625,-33.203125,0.0,1722283911.2337236
-15.625,-49.8046875,-41.015625,-17.08984375,0.0,1722283911.2375703
-22.94921875,-55.6640625,-43.45703125,-23.92578125,0.0,1722283911.241417
-33.203125,-51.26953125,-41.50390625,-31.73828125,0.0,1722283911.2452636
-50.29296875,-59.08203125,-43.9453125,-43.45703125,0.0,1722283911.24911
-47.8515625,-61.03515625,-41.50390625,-46.38671875,0.0,1722283911.2529566
-36.62109375,-53.7109375,-39.55078125,-41.50390625,0.0,1722283911.2568033
-52.24609375,-60.05859375,-45.8984375,-54.6875,0.0,1722283911.2614012
-51.26953125,-61.5234375,-48.33984375,-56.15234375,0.0,1722283911.2652485
-44.921875,-63.4765625,-48.828125,-52.734375,0.0,1722283911.2690957
-40.0390625,-63.4765625,-46.875,-45.8984375,0.0,1722283911.2729428
-36.1328125,-62.01171875,-43.45703125,-31.25,0.0,1722283911.27679
-37.109375,-61.03515625,-43.9453125,-23.4375,0.0,1722283911.2806373
-35.64453125,-56.640625,-42.48046875,-35.64453125,0.0,1722283911.2844844
-31.25,-57.6171875,-38.57421875,-34.66796875,0.0,1722283911.2883315
-35.15625,-59.08203125,-41.50390625,-23.92578125,0.0,1722283911.2921789
-43.45703125,-61.5234375,-51.7578125,-31.73828125,0.0,1722283911.296026
-32.71484375,-59.5703125,-48.828125,-34.66796875,0.0,1722283911.299873
-32.2265625,-63.4765625,-44.921875,-37.59765625,0.0,1722283911.3037202
-41.50390625,-64.453125,-46.875,-40.0390625,0.0,1722283911.3082483
-35.15625,-50.78125,-49.31640625,-38.57421875,0.0,1722283911.312096
-28.3203125,-52.734375,-49.8046875,-36.1328125,0.0,1722283911.3159437
-26.3671875,-55.6640625,-44.43359375,-35.15625,0.0,1722283911.3197916
-27.34375,-51.7578125,-41.9921875,-23.4375,0.0,1722283911.3236392
-25.390625,-56.15234375,-38.57421875,-27.34375,0.0,1722283911.327487
-22.4609375,-59.08203125,-38.0859375,-41.9921875,0.0,1722283911.3313346
-15.13671875,-54.6875,-41.015625,-26.85546875,0.0,1722283911.3351824
-24.4140625,-55.17578125,-46.38671875,-30.76171875,0.0,1722283911.3390303
-33.69140625,-55.17578125,-45.8984375,-39.0625,0.0,1722283911.3428779
-28.80859375,-53.7109375,-39.0625,-38.0859375,0.0,1722283911.3467257
-24.4140625,-54.6875,-40.52734375,-38.57421875,0.0,1722283911.3505733
-15.625,-48.33984375,-32.71484375,-21.97265625,0.0,1722283911.3550458
-27.83203125,-47.36328125,-34.66796875,-17.08984375,0.0,1722283911.358894
-32.71484375,-50.29296875,-37.109375,-8.7890625,0.0,1722283911.3627422
-24.4140625,-50.29296875,-37.59765625,-4.39453125,0.0,1722283911.3665905
-33.203125,-50.78125,-46.38671875,-24.4140625,0.0,1722283911.3704388
-36.1328125,-55.17578125,-50.29296875,-22.4609375,0.0,1722283911.374287
-29.296875,-53.7109375,-44.43359375,-24.4140625,0.0,1722283911.3781352
-27.83203125,-55.6640625,-42.96875,-42.48046875,0.0,1722283911.3819833
-35.64453125,-60.05859375,-56.640625,-40.52734375,0.0,1722283911.3858316
-33.203125,-56.640625,-55.6640625,-39.55078125,0.0,1722283911.3896797
-28.3203125,-63.96484375,-47.8515625,-49.31640625,0.0,1722283911.393528
-29.78515625,-57.12890625,-53.7109375,-41.50390625,0.0,1722283911.397376
-30.2734375,-51.7578125,-52.734375,-35.64453125,0.0,1722283911.4018037
-31.25,-54.6875,-41.015625,-36.1328125,0.0,1722283911.4056523
-30.76171875,-52.24609375,-43.45703125,-31.25,0.0,1722283911.409501
-28.3203125,-55.17578125,-47.8515625,-33.203125,0.0,1722283911.4133496
-30.76171875,-48.33984375,-38.57421875,-31.25,0.0,1722283911.4171982
-31.25,-46.38671875,-34.66796875,-32.71484375,0.0,1722283911.421047
-30.76171875,-53.22265625,-39.55078125,-26.85546875,0.0,1722283911.4248955
-36.62109375,-54.6875,-50.78125,-23.92578125,0.0,1722283911.4287443
-36.1328125,-48.828125,-52.734375,-33.69140625,0.0,1722283911.4325929
-27.34375,-41.9921875,-40.52734375,-35.64453125,0.0,1722283911.4364417
-33.203125,-46.38671875,-42.48046875,-45.41015625,0.0,1722283911.4402902
-43.9453125,-55.6640625,-53.22265625,-44.921875,0.0,1722283911.444139
-36.62109375,-56.15234375,-49.31640625,-41.015625,0.0,1722283911.4485009
-21.97265625,-54.6875,-39.0625,-44.921875,0.0,1722283911.45235
-29.296875,-57.12890625,-40.52734375,-33.203125,0.0,1722283911.456199
-33.69140625,-57.6171875,-46.38671875,-23.92578125,0.0,1722283911.460048
-27.83203125,-52.734375,-42.96875,-14.6484375,0.0,1722283911.463897
-24.4140625,-49.31640625,-37.109375,-13.18359375,0.0,1722283911.467746
-30.2734375,-57.6171875,-38.57421875,-33.203125,0.0,1722283911.4715953
-43.9453125,-62.5,-44.43359375,-40.52734375,0.0,1722283911.4754443
-39.0625,-59.08203125,-48.33984375,-33.69140625,0.0,1722283911.4792933
-31.73828125,-58.59375,-40.0390625,-31.25,0.0,1722283911.4831424
-32.71484375,-62.5,-38.0859375,-41.50390625,0.0,1722283911.4869914
-37.109375,-71.2890625,-46.875,-50.78125,0.0,1722283911.4908404
-35.64453125,-65.4296875,-43.45703125,-41.50390625,0.0,1722283911.4955647
-36.1328125,-51.26953125,-41.015625,-35.15625,0.0,1722283911.4994142
-37.59765625,-51.7578125,-42.96875,-28.80859375,0.0,1722283911.503264
-36.62109375,-45.8984375,-40.0390625,-33.69140625,0.0,1722283911.5071137
-34.66796875,-44.921875,-39.0625,-45.8984375,0.0,1722283911.5109634
-30.2734375,-55.17578125,-42.96875,-46.875,0.0,1722283911.5148132
-31.73828125,-53.22265625,-44.43359375,-44.43359375,0.0,1722283911.518663
-37.109375,-47.8515625,-44.921875,-35.64453125,0.0,1722283911.5225127
-31.73828125,-52.24609375,-50.78125,-29.296875,0.0,1722283911.5263622
-25.87890625,-55.17578125,-44.921875,-29.296875,0.0,1722283911.530212
-28.80859375,-52.734375,-42.96875,-35.64453125,0.0,1722283911.5340617
-22.94921875,-55.17578125,-41.015625,-36.62109375,0.0,1722283911.5379114
-18.5546875,-52.24609375,-32.2265625,-30.2734375,0.0,1722283911.5425718
-20.99609375,-47.8515625,-41.015625,-34.1796875,0.0,1722283911.546422
-20.99609375,-52.734375,-49.8046875,-38.57421875,0.0,1722283911.5502725
-31.73828125,-59.08203125,-44.43359375,-33.69140625,0.0,1722283911.5541227
-35.64453125,-61.03515625,-44.43359375,-29.296875,0.0,1722283911.5579731
-30.2734375,-54.19921875,-48.33984375,-14.6484375,0.0,1722283911.5618234
-33.69140625,-54.19921875,-48.828125,-10.25390625,0.0,1722283911.5656736
-26.3671875,-56.15234375,-57.12890625,-29.78515625,0.0,1722283911.569524
-10.25390625,-53.7109375,-51.26953125,-39.0625,0.0,1722283911.5733743
-19.53125,-54.6875,-43.9453125,-41.015625,0.0,1722283911.5772247
-44.921875,-62.01171875,-50.29296875,-40.0390625,0.0,1722283911.581075
-37.109375,-54.6875,-44.43359375,-31.25,0.0,1722283911.5849252
-20.5078125,-46.38671875,-36.1328125,-7.32421875,0.0,1722283911.5895572
-21.484375,-56.15234375,-39.0625,8.7890625,0.0,1722283911.593408
-34.66796875,-53.22265625,-44.921875,-14.16015625,0.0,1722283911.597259
-47.36328125,-41.9921875,-37.109375,-45.41015625,0.0,1722283911.60111
-47.8515625,-46.38671875,-38.0859375,-51.7578125,0.0,1722283911.604961
-36.1328125,-48.33984375,-44.921875,-35.64453125,0.0,1722283911.6088119
-34.66796875,-44.43359375,-52.734375,-39.55078125,0.0,1722283911.6126626
-29.78515625,-44.921875,-57.12890625,-36.1328125,0.0,1722283911.6165135
-26.85546875,-54.19921875,-51.26953125,-20.01953125,0.0,1722283911.6203644
-37.59765625,-51.7578125,-57.6171875,-35.15625,0.0,1722283911.6242154
-32.71484375,-50.29296875,-57.6171875,-45.8984375,0.0,1722283911.6280663
-14.6484375,-49.8046875,-47.8515625,-30.76171875,0.0,1722283911.6319172
-8.30078125,-46.38671875,-45.8984375,-22.4609375,0.0,1722283911.636522
-14.16015625,-52.24609375,-44.43359375,-31.73828125,0.0,1722283911.6403735
-21.484375,-51.26953125,-48.33984375,-38.57421875,0.0,1722283911.644225
-21.484375,-46.38671875,-52.24609375,-33.69140625,0.0,1722283911.6480763
-16.6015625,-46.875,-51.7578125,-32.2265625,0.0,1722283911.651928
-21.97265625,-56.640625,-54.19921875,-27.34375,0.0,1722283911.6557794
-20.5078125,-53.22265625,-51.7578125,-18.5546875,0.0,1722283911.6596308
-17.08984375,-45.41015625,-48.828125,-12.6953125,0.0,1722283911.6634822
-23.92578125,-49.31640625,-47.8515625,-20.99609375,0.0,1722283911.6673336
-27.34375,-55.17578125,-50.78125,-34.1796875,0.0,1722283911.6711853
-26.3671875,-57.6171875,-50.78125,-20.01953125,0.0,1722283911.6750367
-22.4609375,-53.22265625,-46.875,-24.4140625,0.0,1722283911.678888
-17.08984375,-49.8046875,-52.24609375,-36.62109375,0.0,1722283911.6833785
-14.6484375,-56.640625,-55.17578125,-36.1328125,0.0,1722283911.6872306
-11.23046875,-49.31640625,-49.31640625,-24.4140625,0.0,1722283911.6910825
-16.6015625,-37.109375,-48.33984375,-7.32421875,0.0,1722283911.6949344
-17.08984375,-42.96875,-49.31640625,-2.9296875,0.0,1722283911.6987863
-8.30078125,-46.38671875,-49.8046875,-5.37109375,0.0,1722283911.7026381
-18.06640625,-45.41015625,-44.921875,-2.9296875,0.0,1722283911.70649
-24.4140625,-44.921875,-38.0859375,0.48828125,0.0,1722283911.710342
-26.3671875,-50.78125,-39.0625,-16.6015625,0.0,1722283911.714194
-38.0859375,-54.6875,-41.50390625,-23.4375,0.0,1722283911.718046
-36.62109375,-51.7578125,-38.57421875,-22.4609375,0.0,1722283911.7218978
-35.15625,-54.6875,-46.38671875,-51.7578125,0.0,1722283911.7257497
-34.1796875,-56.640625,-52.24609375,-61.03515625,0.0,1722283911.7301838
-27.34375,-53.7109375,-43.9453125,-39.55078125,0.0,1722283911.7340362
-18.5546875,-50.29296875,-39.0625,-31.73828125,0.0,1722283911.7378886
-22.94921875,-46.875,-44.921875,-37.109375,0.0,1722283911.741741
-26.85546875,-50.29296875,-49.8046875,-32.71484375,0.0,1722283911.7455933
-27.34375,-49.31640625,-48.828125,-28.3203125,0.0,1722283911.7494457
-28.80859375,-41.50390625,-41.015625,-15.13671875,0.0,1722283911.753298
-34.66796875,-50.29296875,-42.48046875,-12.6953125,0.0,1722283911.7571504
-48.828125,-60.05859375,-54.6875,-29.78515625,0.0,1722283911.7610028
-44.43359375,-52.734375,-47.8515625,-37.59765625,0.0,1722283911.7648551
-36.1328125,-48.828125,-49.31640625,-30.76171875,0.0,1722283911.7687073
-38.0859375,-55.17578125,-48.33984375,-19.53125,0.0,1722283911.7725596
-45.8984375,-63.96484375,-46.38671875,-31.25,0.0,1722283911.7769673
-47.8515625,-64.453125,-44.921875,-39.55078125,0.0,1722283911.7808201
-43.45703125,-56.640625,-36.1328125,-35.15625,0.0,1722283911.7846727
-42.48046875,-54.19921875,-40.0390625,-39.0625,0.0,1722283911.7885256
-35.15625,-54.6875,-47.36328125,-32.71484375,0.0,1722283911.7923782
-34.1796875,-53.7109375,-39.0625,-21.97265625,0.0,1722283911.796231
-34.66796875,-51.26953125,-32.71484375,-17.08984375,0.0,1722283911.8000839
-35.64453125,-51.26953125,-38.0859375,-30.76171875,0.0,1722283911.8039365
-33.69140625,-52.24609375,-42.48046875,-32.2265625,0.0,1722283911.8077893
-17.578125,-47.8515625,-38.0859375,-14.6484375,0.0,1722283911.811642
-16.11328125,-49.31640625,-36.1328125,-20.99609375,0.0,1722283911.8154948
-24.4140625,-54.6875,-41.9921875,-30.76171875,0.0,1722283911.8193474
-28.80859375,-48.33984375,-42.96875,-20.5078125,0.0,1722283911.823705
-25.87890625,-44.43359375,-36.1328125,-19.53125,0.0,1722283911.827558
-32.2265625,-49.8046875,-37.59765625,-23.4375,0.0,1722283911.8314111
-29.296875,-46.38671875,-41.50390625,-11.71875,0.0,1722283911.8352642
-23.4375,-41.015625,-41.50390625,-15.13671875,0.0,1722283911.8391173
-16.6015625,-38.0859375,-32.2265625,-10.25390625,0.0,1722283911.8429704
-18.5546875,-44.43359375,-33.69140625,-15.13671875,0.0,1722283911.8468235
-31.25,-48.33984375,-46.875,-16.11328125,0.0,1722283911.8506765
-22.94921875,-41.015625,-41.50390625,-6.8359375,0.0,1722283911.8545296
-15.625,-39.55078125,-38.0859375,-13.671875,0.0,1722283911.858383
-16.6015625,-39.55078125,-41.015625,-19.53125,0.0,1722283911.862236
-19.53125,-44.921875,-43.45703125,-28.3203125,0.0,1722283911.866089
-21.484375,-40.52734375,-39.55078125,-25.87890625,0.0,1722283911.8707702
-23.92578125,-39.55078125,-38.57421875,-21.97265625,0.0,1722283911.8746238
-21.97265625,-48.33984375,-44.921875,-22.4609375,0.0,1722283911.8784776
-5.37109375,-42.96875,-46.38671875,-17.578125,0.0,1722283911.8823311
-0.9765625,-45.8984375,-41.015625,-22.94921875,0.0,1722283911.886185
-11.71875,-50.29296875,-35.64453125,-18.06640625,0.0,1722283911.8900387
-20.01953125,-46.875,-41.9921875,-12.20703125,0.0,1722283911.8938923
-19.04296875,-45.8984375,-48.33984375,-24.90234375,0.0,1722283911.897746
-13.18359375,-41.9921875,-41.50390625,-26.3671875,0.0,1722283911.9015996
-18.5546875,-41.50390625,-38.57421875,-24.90234375,0.0,1722283911.9054534
-33.69140625,-53.22265625,-46.875,-33.69140625,0.0,1722283911.909307
-29.78515625,-51.26953125,-49.8046875,-33.203125,0.0,1722283911.9131608
-16.6015625,-42.96875,-43.9453125,-35.15625,0.0,1722283911.9177473
-18.5546875,-45.8984375,-46.38671875,-41.50390625,0.0,1722283911.9216015
-28.3203125,-47.36328125,-53.22265625,-39.0625,0.0,1722283911.9254558
-30.2734375,-46.875,-52.24609375,-39.0625,0.0,1722283911.92931
-21.484375,-50.29296875,-47.36328125,-37.109375,0.0,1722283911.9331641
-29.296875,-52.734375,-43.9453125,-24.90234375,0.0,1722283911.9370184
-41.50390625,-50.29296875,-45.41015625,-25.87890625,0.0,1722283911.9408727
-31.73828125,-47.8515625,-46.38671875,-29.296875,0.0,1722283911.9447267
-16.6015625,-45.41015625,-43.9453125,-13.671875,0.0,1722283911.948581
-20.99609375,-48.828125,-42.48046875,-18.5546875,0.0,1722283911.9524353
-19.04296875,-52.734375,-43.9453125,-20.5078125,0.0,1722283911.9562893
-20.5078125,-41.9921875,-40.0390625,-18.06640625,0.0,1722283911.9601436
-37.109375,-39.0625,-43.9453125,-34.1796875,0.0,1722283911.9646926
-37.59765625,-44.921875,-53.7109375,-41.50390625,0.0,1722283911.9685473
-36.62109375,-51.7578125,-60.05859375,-35.15625,0.0,1722283911.9724019
-35.64453125,-56.640625,-54.6875,-24.90234375,0.0,1722283911.9762566
-32.2265625,-56.640625,-47.8515625,-27.34375,0.0,1722283911.9801114
-25.390625,-50.29296875,-53.22265625,-29.78515625,0.0,1722283911.983966
-32.2265625,-44.921875,-50.78125,-34.66796875,0.0,1722283911.9878206
-46.38671875,-46.875,-45.8984375,-35.15625,0.0,1722283911.9916754
-41.015625,-43.9453125,-45.8984375,-25.87890625,0.0,1722283911.9955301
-41.015625,-50.29296875,-51.7578125,-34.66796875,0.0,1722283911.9993849
-42.96875,-57.6171875,-55.6640625,-43.9453125,0.0,1722283912.0032394
-36.62109375,-59.5703125,-46.38671875,-28.80859375,0.0,1722283912.0070941
-37.109375,-52.734375,-43.9453125,-30.76171875,0.0,1722283912.0115747
-41.9921875,-50.78125,-50.78125,-42.48046875,0.0,1722283912.01543
-41.50390625,-59.08203125,-52.734375,-39.0625,0.0,1722283912.019285
-38.57421875,-59.08203125,-54.19921875,-39.0625,0.0,1722283912.0231402
-46.38671875,-56.640625,-51.26953125,-33.69140625,0.0,1722283912.0269952
-46.875,-51.7578125,-49.8046875,-26.85546875,0.0,1722283912.0308504
-38.57421875,-49.31640625,-52.734375,-34.1796875,0.0,1722283912.0347054
-27.34375,-47.36328125,-41.50390625,-33.69140625,0.0,1722283912.0385606
-32.71484375,-49.8046875,-36.1328125,-35.15625,0.0,1722283912.0424156
-35.64453125,-52.24609375,-43.45703125,-47.8515625,0.0,1722283912.0462708
-25.390625,-44.921875,-39.0625,-34.1796875,0.0,1722283912.050126
-37.59765625,-48.828125,-43.45703125,-29.78515625,0.0,1722283912.053981
-50.78125,-56.15234375,-52.24609375,-40.0390625,0.0,1722283912.05843
-47.8515625,-54.6875,-53.22265625,-32.2265625,0.0,1722283912.0622854
-32.2265625,-52.734375,-47.8515625,-20.99609375,0.0,1722283912.066141
-29.296875,-50.29296875,-42.96875,-19.04296875,0.0,1722283912.0699966
-25.390625,-48.828125,-43.45703125,-18.5546875,0.0,1722283912.073852
-19.53125,-49.31640625,-46.38671875,-20.99609375,0.0,1722283912.0777075
-23.4375,-47.36328125,-43.45703125,-26.85546875,0.0,1722283912.081563
-18.06640625,-46.38671875,-35.64453125,-30.76171875,0.0,1722283912.0854187
-20.99609375,-51.26953125,-40.0390625,-33.203125,0.0,1722283912.0892742
-23.4375,-45.41015625,-41.9921875,-38.0859375,0.0,1722283912.0931296
-12.20703125,-38.0859375,-33.69140625,-27.34375,0.0,1722283912.096985
-7.32421875,-40.0390625,-28.80859375,-10.7421875,0.0,1722283912.1008408
-10.7421875,-40.0390625,-32.2265625,-7.8125,0.0,1722283912.105248
-11.71875,-39.0625,-28.3203125,-17.08984375,0.0,1722283912.109104
-21.97265625,-39.0625,-25.87890625,-25.390625,0.0,1722283912.1129599
-28.80859375,-41.50390625,-31.25,-34.1796875,0.0,1722283912.1168158
-20.99609375,-45.8984375,-27.34375,-28.3203125,0.0,1722283912.1206715
-19.53125,-40.52734375,-27.83203125,-10.7421875,0.0,1722283912.1245275
-4.39453125,-33.203125,-27.83203125,-7.8125,0.0,1722283912.1283834
-4.8828125,-34.66796875,-29.78515625,-16.11328125,0.0,1722283912.1322393
-26.3671875,-42.96875,-38.57421875,-25.390625,0.0,1722283912.1360953
-24.4140625,-44.43359375,-32.71484375,-28.80859375,0.0,1722283912.139951
-19.04296875,-34.1796875,-29.296875,-20.5078125,0.0,1722283912.143807
-25.390625,-32.2265625,-33.69140625,-18.06640625,0.0,1722283912.1476629
-24.4140625,-38.57421875,-37.59765625,-23.4375,0.0,1722283912.1520367
-22.94921875,-36.62109375,-30.76171875,-8.30078125,0.0,1722283912.1558928
-30.2734375,-34.66796875,-24.4140625,-16.6015625,0.0,1722283912.159749
-25.87890625,-33.69140625,-24.90234375,-40.52734375,0.0,1722283912.1636052
-17.578125,-29.78515625,-20.5078125,-33.69140625,0.0,1722283912.1674616
-16.6015625,-26.3671875,-20.01953125,-22.94921875,0.0,1722283912.1713178
-15.625,-23.92578125,-18.5546875,-16.6015625,0.0,1722283912.175174
-21.484375,-29.78515625,-24.90234375,-21.97265625,0.0,1722283912.1790304
-16.6015625,-28.80859375,-29.78515625,-17.08984375,0.0,1722283912.1828866
-6.8359375,-23.92578125,-22.4609375,5.37109375,0.0,1722283912.1867428
-13.18359375,-22.4609375,-23.4375,1.46484375,0.0,1722283912.190599
-28.80859375,-25.390625,-34.1796875,-23.92578125,0.0,1722283912.1944554
-24.90234375,-25.87890625,-35.64453125,-32.2265625,0.0,1722283912.19882
-16.6015625,-24.4140625,-31.25,-24.4140625,0.0,1722283912.2026768
-23.4375,-40.52734375,-31.73828125,-27.83203125,0.0,1722283912.2065334
-22.4609375,-37.109375,-32.2265625,-13.18359375,0.0,1722283912.2103899
-13.18359375,-20.5078125,-23.92578125,-8.7890625,0.0,1722283912.2142465
-9.27734375,-14.16015625,-18.5546875,-15.625,0.0,1722283912.2181032
-25.390625,-19.53125,-22.94921875,-7.8125,0.0,1722283912.2219596
-41.50390625,-33.203125,-29.78515625,-18.5546875,0.0,1722283912.2258162
-33.203125,-28.80859375,-29.78515625,-23.4375,0.0,1722283912.229673
-11.71875,-20.01953125,-24.4140625,-28.80859375,0.0,1722283912.2335293
-19.53125,-28.80859375,-30.2734375,-41.50390625,0.0,1722283912.237386
-36.62109375,-30.2734375,-34.66796875,-43.45703125,0.0,1722283912.2412426
-29.78515625,-20.01953125,-28.3203125,-38.57421875,0.0,1722283912.245863
-25.87890625,-25.87890625,-32.71484375,-37.109375,0.0,1722283912.24972
-30.76171875,-31.73828125,-33.69140625,-26.3671875,0.0,1722283912.2535772
-36.62109375,-29.78515625,-26.85546875,-7.8125,0.0,1722283912.2574344
-26.3671875,-20.99609375,-16.6015625,-6.34765625,0.0,1722283912.2612915
-17.08984375,-20.01953125,-18.06640625,-10.7421875,0.0,1722283912.2651484
-19.53125,-30.2734375,-28.3203125,-20.01953125,0.0,1722283912.2690055
-26.3671875,-27.34375,-31.25,-25.390625,0.0,1722283912.2728627
-33.69140625,-21.484375,-28.80859375,-24.90234375,0.0,1722283912.2767198
-29.78515625,-12.20703125,-24.4140625,-18.06640625,0.0,1722283912.280577
-25.87890625,-19.53125,-32.71484375,-14.16015625,0.0,1722283912.2844338
-32.2265625,-31.73828125,-34.1796875,-22.94921875,0.0,1722283912.288291
-36.62109375,-22.94921875,-24.4140625,-21.484375,0.0,1722283912.2928603
-31.25,-16.6015625,-21.97265625,-12.6953125,0.0,1722283912.296718
-30.2734375,-26.85546875,-22.94921875,-19.04296875,0.0,1722283912.3005755
-30.76171875,-27.83203125,-23.92578125,-32.71484375,0.0,1722283912.304433
-24.90234375,-15.13671875,-25.390625,-16.11328125,0.0,1722283912.3082905
-23.92578125,-13.18359375,-26.85546875,-9.765625,0.0,1722283912.312148
-30.2734375,-22.94921875,-32.71484375,-35.15625,0.0,1722283912.3160057
-25.390625,-25.390625,-35.15625,-33.69140625,0.0,1722283912.3198633
-11.23046875,-15.625,-24.4140625,-23.4375,0.0,1722283912.323721
-12.20703125,-20.01953125,-24.4140625,-27.83203125,0.0,1722283912.3275783
-3.41796875,-26.85546875,-35.64453125,-16.11328125,0.0,1722283912.331436
0.48828125,-17.578125,-27.83203125,-4.39453125,0.0,1722283912.3352935
-24.90234375,-13.18359375,-17.578125,-25.390625,0.0,1722283912.3398173
-30.2734375,-16.6015625,-12.20703125,-23.92578125,0.0,1722283912.3436754
-24.90234375,-21.484375,-10.25390625,-22.4609375,0.0,1722283912.3475332
-7.32421875,-24.4140625,-13.671875,-22.4609375,0.0,1722283912.3513913
0.0,-25.390625,-13.671875,-14.6484375,0.0,1722283912.3552492
-19.53125,-20.01953125,-11.71875,-18.5546875,0.0,1722283912.3591073
-32.71484375,-19.04296875,-12.6953125,-22.4609375,0.0,1722283912.3629653
-25.390625,-19.04296875,-11.23046875,-22.4609375,0.0,1722283912.3668232
-12.6953125,-18.06640625,-6.34765625,-11.23046875,0.0,1722283912.3706813
-23.4375,-26.85546875,-13.18359375,-21.484375,0.0,1722283912.3745391
-28.80859375,-32.71484375,-20.01953125,-27.34375,0.0,1722283912.3783972
-17.578125,-21.484375,-9.765625,-14.6484375,0.0,1722283912.3822553
-15.625,-20.5078125,-12.20703125,-17.08984375,0.0,1722283912.3867762
-14.6484375,-26.3671875,-19.04296875,-25.390625,0.0,1722283912.3906345
-17.578125,-27.34375,-12.20703125,-14.6484375,0.0,1722283912.394493
-22.94921875,-27.34375,-10.7421875,-8.7890625,0.0,1722283912.3983514
-29.78515625,-22.94921875,-10.25390625,-19.04296875,0.0,1722283912.40221
-21.97265625,-19.53125,-4.8828125,-9.765625,0.0,1722283912.4060683
-21.97265625,-16.11328125,-4.8828125,-4.39453125,0.0,1722283912.4099267
-25.390625,-8.30078125,-5.37109375,-15.625,0.0,1722283912.4137852
-25.87890625,-16.6015625,-8.30078125,-20.5078125,0.0,1722283912.4176435
-40.0390625,-33.69140625,-12.6953125,-24.90234375,0.0,1722283912.4215019
-30.2734375,-21.97265625,0.48828125,-22.4609375,0.0,1722283912.4253604
-26.3671875,-16.11328125,1.46484375,-25.87890625,0.0,1722283912.4292188
-25.390625,-21.97265625,-5.859375,-22.94921875,0.0,1722283912.433648
-19.04296875,-20.01953125,0.9765625,-13.671875,0.0,1722283912.437507
-22.4609375,-11.71875,7.32421875,-11.71875,0.0,1722283912.4413657
-15.625,-15.625,5.37109375,-10.25390625,0.0,1722283912.4452245
-11.23046875,-25.390625,2.9296875,-24.4140625,0.0,1722283912.4490833
-16.6015625,-20.5078125,2.44140625,-31.73828125,0.0,1722283912.4529421
-17.08984375,-16.6015625,8.7890625,-18.06640625,0.0,1722283912.456801
-10.25390625,-14.6484375,14.6484375,6.34765625,0.0,1722283912.4606595
-16.6015625,-17.578125,7.32421875,1.46484375,0.0,1722283912.4645183
-27.34375,-24.4140625,4.39453125,-28.3203125,0.0,1722283912.468377
-23.92578125,-19.53125,9.27734375,-29.78515625,0.0,1722283912.472236
-24.4140625,-13.671875,6.8359375,-15.13671875,0.0,1722283912.4760947
-20.5078125,-17.578125,6.34765625,-15.625,0.0,1722283912.4804635
-11.71875,-14.6484375,10.7421875,-26.85546875,0.0,1722283912.4843225
-9.27734375,-6.8359375,12.20703125,-24.4140625,0.0,1722283912.4881816
-18.06640625,-11.23046875,10.7421875,-29.296875,0.0,1722283912.4920406
-20.99609375,-19.53125,7.32421875,-33.203125,0.0,1722283912.4959
-6.8359375,-16.6015625,10.25390625,-15.625,0.0,1722283912.499759
-0.9765625,-17.08984375,16.6015625,-7.8125,0.0,1722283912.503618
-3.90625,-23.92578125,8.7890625,-20.99609375,0.0,1722283912.507477
-11.23046875,-28.80859375,-3.41796875,-28.80859375,0.0,1722283912.5113363
-12.6953125,-22.94921875,6.34765625,-23.4375,0.0,1722283912.5151954
-7.8125,-12.20703125,22.4609375,-19.04296875,0.0,1722283912.5190544
-10.7421875,-8.7890625,19.53125,-12.6953125,0.0,1722283912.5229137
-26.85546875,-11.23046875,17.08984375,-12.6953125,0.0,1722283912.5272377
-28.80859375,-7.32421875,22.94921875,-14.6484375,0.0,1722283912.5310972
-22.94921875,-4.39453125,27.34375,-13.18359375,0.0,1722283912.5349565
-22.4609375,-3.41796875,28.80859375,-18.5546875,0.0,1722283912.538816
-2.9296875,-2.9296875,22.94921875,-13.18359375,0.0,1722283912.5426753
-6.34765625,-11.71875,25.390625,-13.18359375,0.0,1722283912.5465348
-37.109375,-10.25390625,38.57421875,-27.83203125,0.0,1722283912.550394
-36.62109375,-10.25390625,36.1328125,-25.390625,0.0,1722283912.5542536
-34.66796875,-20.5078125,29.78515625,-20.5078125,0.0,1722283912.5581129
-19.04296875,-14.6484375,36.62109375,-4.39453125,0.0,1722283912.5619724
-12.20703125,-9.27734375,40.52734375,6.34765625,0.0,1722283912.5658317
-21.97265625,-15.13671875,36.62109375,-8.30078125,0.0,1722283912.5696912
-19.53125,-14.6484375,36.1328125,-12.20703125,0.0,1722283912.5739741
-19.04296875,-6.8359375,36.62109375,1.46484375,0.0,1722283912.577834
-15.625,-7.32421875,34.66796875,7.8125,0.0,1722283912.5816934
-15.13671875,-13.18359375,31.25,-0.48828125,0.0,1722283912.5855532
-14.16015625,-4.39453125,27.34375,-4.8828125,0.0,1722283912.589413
-0.48828125,2.44140625,29.78515625,0.48828125,0.0,1722283912.5932724
-8.30078125,-1.46484375,29.296875,-12.20703125,0.0,1722283912.5971322
-32.2265625,-7.8125,22.94921875,-36.1328125,0.0,1722283912.6009917
-30.76171875,-13.671875,25.390625,-37.59765625,0.0,1722283912.6048515
-25.87890625,-8.7890625,28.80859375,-32.71484375,0.0,1722283912.6087112
-28.80859375,-5.37109375,30.76171875,-41.015625,0.0,1722283912.6125708
-25.390625,-6.8359375,40.0390625,-43.9453125,0.0,1722283912.6164305
-29.296875,-1.46484375,41.50390625,-36.62109375,0.0,1722283912.6210043
-37.109375,-12.20703125,36.62109375,-33.69140625,0.0,1722283912.6248643
-37.59765625,-12.20703125,41.015625,-23.4375,0.0,1722283912.6287246
-25.87890625,1.46484375,43.9453125,-18.5546875,0.0,1722283912.6325846
-15.13671875,1.46484375,51.26953125,-9.765625,0.0,1722283912.6364448
-22.4609375,2.9296875,52.734375,-6.8359375,0.0,1722283912.6403048
-29.296875,4.39453125,49.8046875,-9.765625,0.0,1722283912.644165
-32.71484375,1.953125,54.6875,-23.92578125,0.0,1722283912.648025
-28.80859375,2.44140625,51.7578125,-49.31640625,0.0,1722283912.6518853
-20.5078125,-6.34765625,48.828125,-45.8984375,0.0,1722283912.6557453
-22.4609375,-12.20703125,52.24609375,-39.55078125,0.0,1722283912.6596055
-27.34375,-2.44140625,54.6875,-38.0859375,0.0,1722283912.6634655
-22.94921875,3.41796875,55.17578125,-36.1328125,0.0,1722283912.6679862
-19.53125,0.48828125,55.6640625,-28.3203125,0.0,1722283912.6718466
-27.83203125,2.9296875,54.19921875,-33.69140625,0.0,1722283912.6757073
-36.62109375,3.90625,57.12890625,-43.45703125,0.0,1722283912.6795678
-30.76171875,-2.44140625,59.08203125,-31.73828125,0.0,1722283912.6834283
-22.94921875,-8.7890625,58.10546875,-27.83203125,0.0,1722283912.6872888
-33.69140625,-7.8125,50.78125,-45.8984375,0.0,1722283912.6911492
-37.59765625,-2.9296875,39.55078125,-50.78125,0.0,1722283912.69501
-21.97265625,1.953125,46.38671875,-43.45703125,0.0,1722283912.6988704
-19.53125,4.8828125,50.78125,-47.36328125,0.0,1722283912.702731
-35.64453125,-4.8828125,41.9921875,-55.17578125,0.0,1722283912.7065914
-47.8515625,-9.765625,46.38671875,-44.43359375,0.0,1722283912.7104518
-40.0390625,-5.37109375,52.734375,-37.109375,0.0,1722283912.7149215
-42.48046875,-7.32421875,57.6171875,-52.734375,0.0,1722283912.7187824
-50.78125,-12.20703125,61.5234375,-60.546875,0.0,1722283912.7226434
-53.7109375,-3.41796875,71.77734375,-59.08203125,0.0,1722283912.726504
-54.19921875,5.859375,81.54296875,-56.15234375,0.0,1722283912.730365
-51.7578125,2.44140625,78.125,-50.29296875,0.0,1722283912.734226
-51.7578125,3.41796875,72.75390625,-51.26953125,0.0,1722283912.738087
-53.7109375,2.9296875,68.359375,-42.96875,0.0,1722283912.7419477
-57.6171875,-1.953125,70.80078125,-34.66796875,0.0,1722283912.7458086
-67.3828125,-6.8359375,67.3828125,-48.828125,0.0,1722283912.7496696
-74.21875,-3.41796875,63.96484375,-55.17578125,0.0,1722283912.7535305
-65.4296875,3.41796875,69.3359375,-58.59375,0.0,1722283912.7573912
-66.40625,-4.8828125,70.3125,-74.21875,0.0,1722283912.7618194
-70.3125,-8.7890625,75.68359375,-78.125,0.0,1722283912.7656806
-68.359375,-0.48828125,75.1953125,-72.75390625,0.0,1722283912.769542
-49.8046875,6.8359375,78.61328125,-63.4765625,0.0,1722283912.7734032
-56.15234375,3.41796875,77.63671875,-56.640625,0.0,1722283912.7772644
-70.80078125,-1.953125,72.265625,-64.94140625,0.0,1722283912.7811255
-59.08203125,-3.90625,75.68359375,-70.3125,0.0,1722283912.7849867
-54.6875,-3.90625,83.0078125,-54.19921875,0.0,1722283912.7888482
-57.12890625,-6.34765625,83.49609375,-59.08203125,0.0,1722283912.7927094
-61.5234375,-6.8359375,75.68359375,-78.61328125,0.0,1722283912.7965705
-64.453125,1.46484375,81.54296875,-68.84765625,0.0,1722283912.8004317
-60.05859375,-2.9296875,86.9140625,-69.82421875,0.0,1722283912.804293
-48.828125,-3.41796875,77.63671875,-68.84765625,0.0,1722283912.8086774
-48.33984375,-0.9765625,81.54296875,-58.59375,0.0,1722283912.812539
-69.3359375,-2.9296875,93.75,-70.3125,0.0,1722283912.8164005
-80.078125,-2.9296875,92.28515625,-73.2421875,0.0,1722283912.8202622
-76.66015625,-4.8828125,92.7734375,-69.82421875,0.0,1722283912.8241239
-76.171875,-0.9765625,94.7265625,-62.98828125,0.0,1722283912.8279853
-72.265625,-0.9765625,93.26171875,-61.5234375,0.0,1722283912.831847
-67.87109375,-2.44140625,102.05078125,-73.73046875,0.0,1722283912.8357084
-69.3359375,1.953125,95.703125,-83.0078125,0.0,1722283912.83957
-70.3125,-1.953125,95.703125,-74.21875,0.0,1722283912.8434315
-67.3828125,-1.46484375,109.86328125,-65.4296875,0.0,1722283912.8472931
-59.5703125,5.859375,109.86328125,-70.3125,0.0,1722283912.8511546
-53.7109375,-0.48828125,107.91015625,-67.87109375,0.0,1722283912.8554943
-51.7578125,4.8828125,113.76953125,-57.12890625,0.0,1722283912.8593562
-50.29296875,18.06640625,120.60546875,-51.7578125,0.0,1722283912.863218
-48.828125,17.578125,119.140625,-58.59375,0.0,1722283912.86708
-45.41015625,18.06640625,124.51171875,-53.7109375,0.0,1722283912.8709416
-41.015625,22.94921875,130.859375,-47.36328125,0.0,1722283912.8748035
-31.73828125,29.296875,142.08984375,-42.48046875,0.0,1722283912.8786654
-35.64453125,25.87890625,144.53125,-46.38671875,0.0,1722283912.8825274
-49.8046875,17.08984375,128.90625,-50.78125,0.0,1722283912.886389
-47.8515625,17.08984375,128.41796875,-59.08203125,0.0,1722283912.890251
-57.6171875,15.13671875,128.41796875,-64.453125,0.0,1722283912.8941128
-56.640625,14.6484375,126.46484375,-62.5,0.0,1722283912.8979747
-53.22265625,17.578125,135.7421875,-61.03515625,0.0,1722283912.902279
-51.7578125,17.578125,139.6484375,-51.7578125,0.0,1722283912.906141
-41.015625,15.13671875,142.08984375,-44.43359375,0.0,1722283912.9100032
-53.7109375,15.625,147.4609375,-55.17578125,0.0,1722283912.9138653
-55.17578125,10.7421875,152.34375,-65.91796875,0.0,1722283912.9177275
-48.33984375,10.25390625,157.2265625,-59.08203125,0.0,1722283912.9215896
-48.33984375,22.94921875,163.57421875,-47.36328125,0.0,1722283912.9254518
-48.33984375,25.87890625,163.0859375,-47.36328125,0.0,1722283912.9293137
-58.10546875,23.92578125,154.296875,-52.734375,0.0,1722283912.9331758
-54.6875,26.3671875,156.73828125,-47.8515625,0.0,1722283912.937038
-50.29296875,22.4609375,158.203125,-50.78125,0.0,1722283912.9409
-59.08203125,16.6015625,157.71484375,-56.15234375,0.0,1722283912.9447622
-54.19921875,30.2734375,170.8984375,-53.7109375,0.0,1722283912.9490242
-41.9921875,41.015625,178.22265625,-44.921875,0.0,1722283912.9528866
-41.9921875,38.57421875,173.828125,-49.31640625,0.0,1722283912.956749
-37.59765625,39.55078125,165.0390625,-50.78125,0.0,1722283912.9606113
-15.13671875,35.64453125,166.50390625,-30.76171875,0.0,1722283912.9644735
-31.73828125,33.69140625,184.5703125,-44.43359375,0.0,1722283912.9683359
-77.63671875,28.3203125,184.5703125,-89.84375,0.0,1722283912.9721982
-91.30859375,19.53125,177.734375,-98.6328125,0.0,1722283912.9760606
-95.21484375,23.4375,185.05859375,-102.05078125,0.0,1722283912.979923
-91.30859375,26.85546875,187.5,-104.00390625,0.0,1722283912.9837854
-114.74609375,22.4609375,190.4296875,-110.3515625,0.0,1722283912.9876475
-143.5546875,15.625,186.5234375,-122.0703125,0.0,1722283912.99151
-126.953125,18.5546875,190.4296875,-117.1875,0.0,1722283912.9960368
-125.0,23.92578125,194.3359375,-132.8125,0.0,1722283912.9998996
-120.60546875,24.4140625,198.73046875,-119.62890625,0.0,1722283913.0037622
-111.81640625,23.92578125,201.66015625,-92.7734375,0.0,1722283913.007625
-110.83984375,28.80859375,193.359375,-96.6796875,0.0,1722283913.0114877
-106.4453125,23.92578125,195.3125,-89.84375,0.0,1722283913.0153506
-92.28515625,20.99609375,192.87109375,-80.56640625,0.0,1722283913.0192132
-88.37890625,23.92578125,187.01171875,-85.44921875,0.0,1722283913.023076
-82.51953125,29.78515625,191.89453125,-72.75390625,0.0,1722283913.0269387
-81.0546875,20.99609375,196.2890625,-70.80078125,0.0,1722283913.0308015
-88.37890625,5.37109375,195.3125,-78.61328125,0.0,1722283913.0346642
-91.30859375,14.6484375,193.359375,-80.56640625,0.0,1722283913.038527
-92.7734375,21.484375,197.265625,-76.66015625,0.0,1722283913.0430005
-89.35546875,24.90234375,200.1953125,-72.265625,0.0,1722283913.0468636
-79.58984375,28.3203125,202.63671875,-67.87109375,0.0,1722283913.0507267
-70.80078125,22.94921875,211.42578125,-62.01171875,0.0,1722283913.0545897
-70.80078125,19.04296875,211.9140625,-64.453125,0.0,1722283913.0584528
-63.96484375,19.53125,214.84375,-62.5,0.0,1722283913.062316
-63.96484375,19.04296875,213.8671875,-73.73046875,0.0,1722283913.066179
-70.80078125,16.6015625,209.9609375,-84.9609375,0.0,1722283913.0700421
-63.96484375,22.4609375,217.28515625,-72.265625,0.0,1722283913.0739052
-62.01171875,18.06640625,231.4453125,-69.82421875,0.0,1722283913.0777683
-69.3359375,2.44140625,267.08984375,-72.75390625,0.0,1722283913.0816314
-69.82421875,14.16015625,308.59375,-60.546875,0.0,1722283913.0854943
-69.3359375,20.99609375,326.66015625,-61.03515625,0.0,1722283913.0899355
-66.89453125,17.578125,339.84375,-62.98828125,0.0,1722283913.0937989
-65.91796875,22.94921875,370.60546875,-67.87109375,0.0,1722283913.0976622
-55.17578125,28.3203125,403.3203125,-71.2890625,0.0,1722283913.1015258
-55.6640625,31.25,420.41015625,-63.96484375,0.0,1722283913.105389
-71.77734375,28.3203125,430.6640625,-64.453125,0.0,1722283913.1092527
-80.078125,26.3671875,444.82421875,-72.265625,0.0,1722283913.113116
-77.1484375,27.34375,452.1484375,-81.54296875,0.0,1722283913.1169794
-73.73046875,25.87890625,460.44921875,-79.1015625,0.0,1722283913.120843
-85.44921875,25.87890625,469.7265625,-71.2890625,0.0,1722283913.1247063
-83.49609375,24.90234375,477.5390625,-69.3359375,0.0,1722283913.1285696
-77.1484375,31.73828125,485.83984375,-74.70703125,0.0,1722283913.1324332
-83.984375,39.55078125,493.65234375,-75.68359375,0.0,1722283913.1368232
-85.44921875,40.52734375,506.8359375,-74.70703125,0.0,1722283913.140687
-81.54296875,41.50390625,525.390625,-77.1484375,0.0,1722283913.1445508
-70.3125,36.62109375,539.55078125,-80.078125,0.0,1722283913.1484144
-71.2890625,35.64453125,542.48046875,-78.61328125,0.0,1722283913.1522782
-76.66015625,40.0390625,544.921875,-62.98828125,0.0,1722283913.1561418
-83.49609375,37.59765625,538.57421875,-59.5703125,0.0,1722283913.1600056
-85.9375,40.52734375,533.69140625,-62.5,0.0,1722283913.1638694
-81.0546875,35.15625,514.6484375,-62.98828125,0.0,1722283913.167733
-83.0078125,23.92578125,496.58203125,-78.125,0.0,1722283913.1715968
-78.125,26.3671875,498.53515625,-78.61328125,0.0,1722283913.1754606
-82.03125,28.80859375,479.00390625,-65.4296875,0.0,1722283913.1793242
-76.66015625,38.57421875,466.796875,-58.59375,0.0,1722283913.1837006
-73.73046875,39.0625,452.63671875,-61.03515625,0.0,1722283913.1875646
-79.58984375,25.390625,439.453125,-68.84765625,0.0,1722283913.1914287
-68.84765625,28.3203125,429.6875,-75.68359375,0.0,1722283913.1952927
-61.03515625,39.55078125,409.1796875,-71.2890625,0.0,1722283913.1991568
-67.87109375,45.41015625,397.94921875,-53.22265625,0.0,1722283913.2030206
-66.89453125,41.015625,385.25390625,-49.8046875,0.0,1722283913.2068846
-50.78125,45.8984375,376.953125,-56.640625,0.0,1722283913.2107487
-58.10546875,41.50390625,364.2578125,-61.5234375,0.0,1722283913.2146127
-68.359375,27.34375,347.16796875,-79.58984375,0.0,1722283913.2184768
-63.96484375,37.59765625,331.54296875,-84.47265625,0.0,1722283913.2223408
-70.80078125,44.43359375,314.453125,-85.44921875,0.0,1722283913.2262049
-78.125,35.64453125,305.17578125,-83.49609375,0.0,1722283913.2305264
-70.3125,31.73828125,298.828125,-64.453125,0.0,1722283913.2343907
-65.91796875,35.15625,290.0390625,-56.640625,0.0,1722283913.238255
-76.171875,34.66796875,277.83203125,-58.10546875,0.0,1722283913.242119
-84.9609375,34.66796875,268.06640625,-62.01171875,0.0,1722283913.2459834
-75.1953125,33.203125,258.30078125,-75.1953125,0.0,1722283913.2498477
-77.1484375,39.55078125,250.9765625,-84.47265625,0.0,1722283913.253712
-91.30859375,45.41015625,243.65234375,-76.171875,0.0,1722283913.2575762
-93.75,33.203125,230.46875,-71.77734375,0.0,1722283913.2614405
-94.23828125,33.203125,226.5625,-76.171875,0.0,1722283913.2653048
-90.8203125,40.0390625,223.6328125,-81.0546875,0.0,1722283913.269169
-88.37890625,37.59765625,214.84375,-81.0546875,0.0,1722283913.2730334
-92.7734375,28.3203125,211.42578125,-85.9375,0.0,1722283913.2773147
-84.9609375,29.78515625,205.56640625,-85.44921875,0.0,1722283913.2811792
-63.96484375,33.69140625,196.2890625,-63.96484375,0.0,1722283913.2850435
-56.15234375,36.62109375,191.89453125,-54.6875,0.0,1722283913.288908
-67.87109375,39.55078125,185.05859375,-63.4765625,0.0,1722283913.2927725
-88.8671875,28.80859375,186.03515625,-73.73046875,0.0,1722283913.296637
-87.890625,20.99609375,182.6171875,-76.171875,0.0,1722283913.3005016
-85.44921875,20.5078125,172.8515625,-77.63671875,0.0,1722283913.304366
-98.14453125,14.6484375,174.31640625,-91.30859375,0.0,1722283913.3082306
-75.68359375,16.6015625,180.6640625,-77.1484375,0.0,1722283913.3120952
-77.1484375,18.5546875,178.22265625,-80.078125,0.0,1722283913.3159597
-93.75,15.625,180.6640625,-100.5859375,0.0,1722283913.3198242
-92.7734375,23.4375,182.12890625,-97.65625,0.0,1722283913.3240654
-92.28515625,32.2265625,186.03515625,-94.7265625,0.0,1722283913.32793
-83.984375,22.94921875,187.01171875,-90.8203125,0.0,1722283913.3317947
-76.171875,19.04296875,181.640625,-87.890625,0.0,1722283913.3356595
-87.890625,21.97265625,187.01171875,-86.42578125,0.0,1722283913.3395243
-87.40234375,29.78515625,199.21875,-79.1015625,0.0,1722283913.343389
-77.63671875,36.62109375,209.9609375,-82.03125,0.0,1722283913.3472538
-80.56640625,35.64453125,217.28515625,-83.49609375,0.0,1722283913.3511183
-84.9609375,36.62109375,230.95703125,-71.2890625,0.0,1722283913.354983
-90.33203125,32.71484375,243.65234375,-79.58984375,0.0,1722283913.3588479
-92.7734375,29.78515625,255.37109375,-93.26171875,0.0,1722283913.3627126
-91.30859375,33.69140625,264.16015625,-83.0078125,0.0,1722283913.3665774
-80.56640625,40.0390625,264.6484375,-72.75390625,0.0,1722283913.3710577
-69.3359375,39.0625,272.4609375,-70.3125,0.0,1722283913.374923
-73.73046875,39.55078125,283.203125,-68.84765625,0.0,1722283913.378788
-77.1484375,38.57421875,280.2734375,-75.68359375,0.0,1722283913.382653
-69.3359375,37.109375,270.99609375,-72.75390625,0.0,1722283913.386518
-66.40625,40.52734375,267.08984375,-65.4296875,0.0,1722283913.3903832
-66.40625,41.50390625,264.6484375,-63.96484375,0.0,1722283913.3942482
-66.89453125,41.9921875,262.6953125,-76.66015625,0.0,1722283913.3981133
-65.91796875,29.78515625,262.6953125,-76.66015625,0.0,1722283913.4019783
-62.5,28.3203125,261.23046875,-67.87109375,0.0,1722283913.4058435
-68.359375,37.59765625,254.8828125,-75.68359375,0.0,1722283913.4097085
-73.73046875,33.69140625,248.046875,-84.9609375,0.0,1722283913.4135735
-67.87109375,33.203125,244.140625,-86.9140625,0.0,1722283913.4180248
-61.5234375,35.15625,238.28125,-89.35546875,0.0,1722283913.42189
-67.3828125,34.66796875,231.93359375,-82.51953125,0.0,1722283913.4257555
-79.58984375,31.73828125,231.4453125,-78.61328125,0.0,1722283913.429621
-80.078125,26.85546875,228.02734375,-85.44921875,0.0,1722283913.4334862
-74.21875,28.3203125,218.75,-85.44921875,0.0,1722283913.4373517
-76.66015625,25.87890625,205.56640625,-93.26171875,0.0,1722283913.441217
-80.56640625,22.94921875,201.66015625,-98.6328125,0.0,1722283913.4450824
-69.82421875,27.34375,199.70703125,-74.21875,0.0,1722283913.448948
-66.40625,29.78515625,194.3359375,-59.08203125,0.0,1722283913.4528131
-82.51953125,21.97265625,186.5234375,-74.70703125,0.0,1722283913.4566786
-66.89453125,13.18359375,184.5703125,-66.40625,0.0,1722283913.4605439
-54.6875,15.625,176.7578125,-63.4765625,0.0,1722283913.464951
-83.0078125,21.97265625,164.55078125,-101.07421875,0.0,1722283913.4688168
-93.26171875,22.94921875,149.4140625,-113.76953125,0.0,1722283913.4726822
-74.70703125,22.4609375,142.08984375,-84.9609375,0.0,1722283913.476548
-65.91796875,21.97265625,143.06640625,-62.01171875,0.0,1722283913.4804137
-58.59375,34.66796875,135.25390625,-61.03515625,0.0,1722283913.4842794
-57.6171875,47.36328125,129.8828125,-76.171875,0.0,1722283913.488145
-56.640625,47.36328125,125.9765625,-65.4296875,0.0,1722283913.4920108
-47.8515625,44.43359375,116.2109375,-63.96484375,0.0,1722283913.4958766
-60.05859375,40.52734375,104.00390625,-86.42578125,0.0,1722283913.499742
-55.6640625,41.50390625,93.26171875,-82.51953125,0.0,1722283913.5036077
-41.50390625,43.9453125,96.6796875,-74.21875,0.0,1722283913.5074735
-47.36328125,39.0625,98.6328125,-75.1953125,0.0,1722283913.5118499
-52.734375,32.2265625,91.796875,-80.078125,0.0,1722283913.5157158
-54.6875,32.71484375,90.8203125,-90.8203125,0.0,1722283913.5195818
-50.29296875,31.73828125,94.7265625,-84.9609375,0.0,1722283913.5234478
-49.8046875,30.76171875,91.30859375,-68.359375,0.0,1722283913.5273137
-57.12890625,24.90234375,84.47265625,-73.73046875,0.0,1722283913.5311797
-60.05859375,21.97265625,86.42578125,-82.51953125,0.0,1722283913.5350456
-52.24609375,27.83203125,93.75,-68.84765625,0.0,1722283913.5389116
-55.6640625,21.97265625,93.26171875,-58.59375,0.0,1722283913.5427775
-66.89453125,13.671875,85.9375,-74.21875,0.0,1722283913.5466435
-61.5234375,18.5546875,88.8671875,-77.63671875,0.0,1722283913.5505095
-62.5,18.5546875,98.14453125,-83.0078125,0.0,1722283913.5543754
-72.75390625,13.18359375,100.5859375,-79.1015625,0.0,1722283913.5587068
-72.265625,10.7421875,104.98046875,-75.1953125,0.0,1722283913.562573
-63.4765625,16.6015625,117.67578125,-72.75390625,0.0,1722283913.5664392
-62.01171875,18.06640625,130.859375,-79.58984375,0.0,1722283913.5703053
-59.08203125,16.11328125,131.34765625,-83.0078125,0.0,1722283913.5741715
-58.10546875,16.11328125,133.7890625,-67.3828125,0.0,1722283913.5780377
-51.26953125,11.23046875,140.625,-61.5234375,0.0,1722283913.581904
-46.875,11.23046875,142.578125,-60.05859375,0.0,1722283913.5857701
-55.6640625,11.23046875,141.11328125,-80.56640625,0.0,1722283913.5896363
-64.453125,5.37109375,145.99609375,-89.35546875,0.0,1722283913.5935025
-61.5234375,9.27734375,158.203125,-74.70703125,0.0,1722283913.5973687
-64.453125,8.30078125,158.69140625,-78.125,0.0,1722283913.6012352
-66.40625,2.9296875,166.50390625,-76.171875,0.0,1722283913.6055348
-64.453125,0.0,169.921875,-64.94140625,0.0,1722283913.6094012
-63.4765625,0.48828125,177.24609375,-49.8046875,0.0,1722283913.6132677
-53.22265625,-4.8828125,190.4296875,-56.640625,0.0,1722283913.617134
-40.0390625,-7.8125,188.4765625,-68.84765625,0.0,1722283913.6210005
-45.41015625,-10.7421875,191.40625,-67.3828125,0.0,1722283913.624867
-45.41015625,-6.8359375,200.68359375,-58.59375,0.0,1722283913.6287336
-42.48046875,-2.9296875,195.80078125,-58.59375,0.0,1722283913.6326
-56.15234375,-11.71875,178.7109375,-73.2421875,0.0,1722283913.6364665
-61.03515625,-21.97265625,170.41015625,-65.4296875,0.0,1722283913.640333
-64.94140625,-22.4609375,165.52734375,-56.15234375,0.0,1722283913.6441994
-64.94140625,-22.4609375,159.1796875,-61.5234375,0.0,1722283913.6480658
-64.94140625,-28.3203125,150.87890625,-69.82421875,0.0,1722283913.6523764
-54.19921875,-30.2734375,143.5546875,-75.68359375,0.0,1722283913.656243
-58.10546875,-26.85546875,140.625,-77.63671875,0.0,1722283913.6601098
-67.3828125,-24.4140625,130.37109375,-85.44921875,0.0,1722283913.6639764
-67.3828125,-26.85546875,119.62890625,-93.75,0.0,1722283913.667843
-66.89453125,-23.92578125,118.1640625,-81.0546875,0.0,1722283913.6717098
-59.5703125,-20.01953125,114.74609375,-68.84765625,0.0,1722283913.6755764
-64.94140625,-24.4140625,100.09765625,-71.2890625,0.0,1722283913.6794431
-68.359375,-28.80859375,83.0078125,-76.66015625,0.0,1722283913.6833098
-62.01171875,-21.97265625,79.1015625,-72.75390625,0.0,1722283913.6871765
-64.94140625,-22.94921875,67.3828125,-71.77734375,0.0,1722283913.6910431
-64.94140625,-25.390625,48.33984375,-82.51953125,0.0,1722283913.6949098
-65.4296875,-39.0625,22.94921875,-88.8671875,0.0,1722283913.699141
-70.3125,-50.29296875,11.71875,-85.44921875,0.0,1722283913.703008
-73.2421875,-44.921875,13.671875,-73.73046875,0.0,1722283913.7068746
-69.3359375,-44.921875,10.25390625,-78.61328125,0.0,1722283913.7107415
-63.4765625,-44.921875,10.25390625,-88.8671875,0.0,1722283913.7146084
-61.03515625,-28.80859375,10.25390625,-77.63671875,0.0,1722283913.7184753
-67.87109375,-26.3671875,11.23046875,-70.80078125,0.0,1722283913.7223423
-81.0546875,-45.41015625,3.90625,-78.125,0.0,1722283913.7262092
-83.49609375,-48.828125,-4.8828125,-77.1484375,0.0,1722283913.730076
-80.56640625,-39.55078125,-2.9296875,-75.1953125,0.0,1722283913.7339427
-78.125,-39.0625,3.41796875,-83.0078125,0.0,1722283913.7378097
-76.171875,-40.52734375,2.44140625,-85.9375,0.0,1722283913.7416766
-69.3359375,-41.9921875,-3.90625,-78.61328125,0.0,1722283913.7462006
-62.5,-41.9921875,2.44140625,-70.3125,0.0,1722283913.7500677
-67.87109375,-47.36328125,-0.9765625,-80.56640625,0.0,1722283913.753935
-74.70703125,-55.17578125,-9.765625,-87.890625,0.0,1722283913.7578022
-74.70703125,-49.8046875,-5.859375,-68.84765625,0.0,1722283913.7616694
-74.21875,-49.31640625,-12.20703125,-62.01171875,0.0,1722283913.7655368
-68.84765625,-51.7578125,-19.53125,-67.87109375,0.0,1722283913.769404
-69.82421875,-45.8984375,-24.90234375,-64.94140625,0.0,1722283913.773271
-73.2421875,-46.875,-29.296875,-63.96484375,0.0,1722283913.7771385
-65.4296875,-48.828125,-25.87890625,-66.89453125,0.0,1722283913.7810056
-59.08203125,-52.734375,-33.203125,-56.15234375,0.0,1722283913.7848728
-50.78125,-55.6640625,-33.203125,-42.96875,0.0,1722283913.7887402
-52.734375,-44.43359375,-26.3671875,-53.7109375,0.0,1722283913.7931833
-67.87109375,-45.41015625,-25.87890625,-75.68359375,0.0,1722283913.7970507
-72.265625,-60.05859375,-25.87890625,-79.1015625,0.0,1722283913.8009183
-63.96484375,-55.6640625,-29.296875,-75.1953125,0.0,1722283913.8047857
-59.08203125,-49.31640625,-21.97265625,-64.94140625,0.0,1722283913.8086534
-58.59375,-45.8984375,-17.578125,-70.80078125,0.0,1722283913.812521
-63.4765625,-47.36328125,-24.90234375,-92.7734375,0.0,1722283913.8163884
-71.2890625,-49.31640625,-29.296875,-86.42578125,0.0,1722283913.820256
-62.5,-42.48046875,-21.97265625,-71.2890625,0.0,1722283913.8241234
-61.03515625,-41.015625,-16.6015625,-75.68359375,0.0,1722283913.827991
-62.01171875,-41.9921875,-21.97265625,-80.078125,0.0,1722283913.8318584
-58.10546875,-36.1328125,-14.16015625,-65.4296875,0.0,1722283913.835726
-60.546875,-40.0390625,-7.8125,-59.5703125,0.0,1722283913.840108
-64.453125,-44.921875,-15.13671875,-80.078125,0.0,1722283913.8439758
-71.2890625,-40.52734375,-10.7421875,-87.40234375,0.0,1722283913.8478434
-66.40625,-36.62109375,0.48828125,-77.63671875,0.0,1722283913.8517113
-61.5234375,-33.69140625,4.39453125,-65.4296875,0.0,1722283913.8555791
-64.94140625,-31.25,15.625,-56.640625,0.0,1722283913.8594468
-62.5,-20.5078125,21.484375,-76.66015625,0.0,1722283913.8633146
-61.03515625,-18.5546875,24.90234375,-77.1484375,0.0,1722283913.8671825
-67.87109375,-33.203125,24.90234375,-77.63671875,0.0,1722283913.8710504
-66.40625,-23.92578125,22.94921875,-87.890625,0.0,1722283913.874918
-72.75390625,-8.7890625,30.2734375,-70.3125,0.0,1722283913.8787858
-77.63671875,-14.6484375,34.66796875,-57.12890625,0.0,1722283913.8826537
-68.359375,-17.578125,36.1328125,-68.84765625,0.0,1722283913.8869963
-70.3125,-22.94921875,34.1796875,-78.61328125,0.0,1722283913.8908644
-75.68359375,-10.7421875,38.0859375,-79.1015625,0.0,1722283913.8947322
-75.1953125,1.953125,45.8984375,-68.84765625,0.0,1722283913.8986003
-69.82421875,0.48828125,40.52734375,-60.546875,0.0,1722283913.9024684
-54.6875,3.41796875,35.15625,-53.7109375,0.0,1722283913.9063365
-57.12890625,-2.44140625,38.0859375,-59.5703125,0.0,1722283913.9102044
-53.22265625,0.9765625,44.43359375,-61.03515625,0.0,1722283913.9140725
-41.50390625,8.30078125,46.38671875,-69.82421875,0.0,1722283913.9179406
-57.12890625,6.34765625,36.1328125,-78.125,0.0,1722283913.9218085
-60.05859375,11.23046875,31.73828125,-72.75390625,0.0,1722283913.9256766
-59.5703125,19.53125,34.66796875,-71.77734375,0.0,1722283913.9295447
-70.3125,17.08984375,40.52734375,-72.265625,0.0,1722283913.933858
-70.80078125,15.625,33.203125,-74.21875,0.0,1722283913.9377263
-70.3125,17.578125,26.3671875,-75.68359375,0.0,1722283913.9415946
-67.87109375,20.01953125,33.69140625,-68.84765625,0.0,1722283913.9454627
-63.96484375,16.11328125,33.203125,-62.5,0.0,1722283913.949331
-62.5,22.4609375,31.25,-62.5,0.0,1722283913.9531994
-59.08203125,29.296875,30.2734375,-70.80078125,0.0,1722283913.9570675
-54.19921875,27.83203125,34.1796875,-67.87109375,0.0,1722283913.9609358
-61.03515625,22.94921875,28.3203125,-79.1015625,0.0,1722283913.9648042
-59.5703125,14.6484375,30.2734375,-86.42578125,0.0,1722283913.9686725
-44.921875,16.6015625,42.96875,-65.91796875,0.0,1722283913.9725406
-48.828125,13.18359375,43.45703125,-60.546875,0.0,1722283913.976409
-66.89453125,12.6953125,41.50390625,-65.4296875,0.0,1722283913.9807055
-73.2421875,18.5546875,43.9453125,-63.4765625,0.0,1722283913.9845738
-68.84765625,18.06640625,41.9921875,-55.17578125,0.0,1722283913.9884424
-71.2890625,20.5078125,35.64453125,-66.89453125,0.0,1722283913.9923108
-78.125,21.97265625,37.109375,-88.37890625,0.0,1722283913.9961793
-74.21875,17.578125,41.015625,-89.35546875,0.0,1722283914.000048
-59.08203125,20.01953125,43.9453125,-69.3359375,0.0,1722283914.0039163
-64.453125,17.08984375,43.45703125,-66.40625,0.0,1722283914.0077848
-78.61328125,4.8828125,31.73828125,-72.75390625,0.0,1722283914.0116532
-73.73046875,8.30078125,29.296875,-73.2421875,0.0,1722283914.0155218
-65.4296875,11.23046875,31.25,-71.77734375,0.0,1722283914.0193903
-60.546875,9.765625,25.87890625,-70.80078125,0.0,1722283914.0232587
-65.4296875,4.8828125,21.97265625,-77.1484375,0.0,1722283914.027512
-66.40625,9.27734375,31.73828125,-71.77734375,0.0,1722283914.0313807
-62.98828125,7.8125,28.80859375,-65.4296875,0.0,1722283914.0352495
-71.2890625,0.9765625,17.08984375,-65.91796875,0.0,1722283914.039118
-79.1015625,8.30078125,19.04296875,-63.96484375,0.0,1722283914.0429869
-72.75390625,13.18359375,22.94921875,-68.359375,0.0,1722283914.0468554
-62.5,5.859375,28.80859375,-64.453125,0.0,1722283914.050724
-66.89453125,-3.90625,25.390625,-75.1953125,0.0,1722283914.0545928
-75.1953125,-3.90625,18.5546875,-79.58984375,0.0,1722283914.0584614
-71.77734375,-2.44140625,24.4140625,-59.08203125,0.0,1722283914.0623302
-62.5,-6.34765625,19.04296875,-66.89453125,0.0,1722283914.0661988
-56.640625,-10.7421875,11.71875,-66.40625,0.0,1722283914.0700676
-52.24609375,-9.765625,14.16015625,-61.5234375,0.0,1722283914.0743139
-53.22265625,-1.46484375,17.08984375,-63.4765625,0.0,1722283914.078183
-61.03515625,1.46484375,18.06640625,-67.3828125,0.0,1722283914.0820518
-69.82421875,-0.9765625,6.8359375,-74.70703125,0.0,1722283914.0859206
-65.91796875,-2.9296875,3.90625,-68.359375,0.0,1722283914.0897894
-60.05859375,-1.953125,9.765625,-64.453125,0.0,1722283914.0936584
-73.2421875,-3.90625,3.90625,-69.82421875,0.0,1722283914.0975273
-88.37890625,-9.27734375,-6.34765625,-78.61328125,0.0,1722283914.101396
-82.51953125,-6.8359375,-8.30078125,-73.73046875,0.0,1722283914.105265
-69.3359375,0.48828125,-2.9296875,-61.03515625,0.0,1722283914.109134
-69.82421875,-0.48828125,-2.9296875,-69.82421875,0.0,1722283914.1130028
-65.91796875,-5.859375,-3.90625,-74.21875,0.0,1722283914.1168716
-50.78125,-6.8359375,1.46484375,-47.36328125,0.0,1722283914.1213229
-50.29296875,-4.8828125,5.37109375,-45.41015625,0.0,1722283914.1251922
-60.05859375,-2.44140625,1.46484375,-58.59375,0.0,1722283914.1290612
-65.91796875,-7.32421875,-4.8828125,-61.03515625,0.0,1722283914.1329305
-65.91796875,-13.18359375,-1.46484375,-61.03515625,0.0,1722283914.1367996
-63.4765625,-14.6484375,-2.44140625,-68.359375,0.0,1722283914.1406689
-57.6171875,-11.23046875,-5.859375,-70.80078125,0.0,1722283914.144538
-54.19921875,-6.8359375,-4.8828125,-59.5703125,0.0,1722283914.1484072
-43.45703125,0.9765625,-0.48828125,-51.26953125,0.0,1722283914.1522763
-36.1328125,3.41796875,0.48828125,-49.8046875,0.0,1722283914.1561453
-49.31640625,-5.859375,-15.13671875,-71.2890625,0.0,1722283914.1600146
-54.19921875,-8.7890625,-19.53125,-79.1015625,0.0,1722283914.1638837
-46.38671875,-14.16015625,-11.23046875,-57.6171875,0.0,1722283914.168306
-49.8046875,-18.5546875,-23.92578125,-53.7109375,0.0,1722283914.1721756
-68.359375,-10.7421875,-30.2734375,-73.2421875,0.0,1722283914.1760452
-65.4296875,-8.7890625,-31.25,-76.171875,0.0,1722283914.1799145
-56.640625,-11.71875,-28.3203125,-57.12890625,0.0,1722283914.183784
-54.19921875,-12.6953125,-23.4375,-49.8046875,0.0,1722283914.1876533
-62.01171875,-18.06640625,-24.90234375,-54.6875,0.0,1722283914.1915228
-80.56640625,-23.92578125,-26.3671875,-68.84765625,0.0,1722283914.1953924
-66.40625,-15.625,-20.99609375,-63.96484375,0.0,1722283914.1992617
-64.94140625,-19.53125,-17.08984375,-63.96484375,0.0,1722283914.2031312
-88.37890625,-31.73828125,-34.1796875,-83.984375,0.0,1722283914.2070007
-86.9140625,-30.76171875,-40.52734375,-96.19140625,0.0,1722283914.21087
-75.68359375,-36.62109375,-40.0390625,-98.6328125,0.0,1722283914.2152345
-79.1015625,-41.015625,-35.64453125,-86.42578125,0.0,1722283914.219104
-76.171875,-41.9921875,-29.296875,-75.1953125,0.0,1722283914.2229738
-62.01171875,-38.57421875,-26.85546875,-64.94140625,0.0,1722283914.2268436
-65.4296875,-39.0625,-29.296875,-51.26953125,0.0,1722283914.2307131
-66.40625,-48.828125,-31.25,-41.50390625,0.0,1722283914.234583
-57.12890625,-48.33984375,-30.76171875,-50.78125,0.0,1722283914.2384524
-57.6171875,-39.0625,-33.69140625,-51.7578125,0.0,1722283914.2423222
-58.10546875,-32.2265625,-34.66796875,-46.38671875,0.0,1722283914.246192
-61.5234375,-34.1796875,-39.0625,-64.94140625,0.0,1722283914.2500615
-64.94140625,-36.62109375,-42.48046875,-76.66015625,0.0,1722283914.2539313
-65.91796875,-37.59765625,-42.48046875,-78.61328125,0.0,1722283914.257801
-59.5703125,-36.1328125,-42.96875,-77.1484375,0.0,1722283914.262157
-61.03515625,-42.48046875,-41.9921875,-75.68359375,0.0,1722283914.266027
-63.4765625,-45.8984375,-37.109375,-68.359375,0.0,1722283914.269897
-56.640625,-41.015625,-31.25,-51.7578125,0.0,1722283914.2737668
-58.10546875,-39.0625,-25.390625,-48.828125,0.0,1722283914.2776368
-61.03515625,-36.1328125,-25.390625,-52.24609375,0.0,1722283914.2815068
-55.17578125,-38.0859375,-27.83203125,-53.22265625,0.0,1722283914.2853765
-47.8515625,-36.1328125,-25.390625,-48.33984375,0.0,1722283914.2892466
-51.26953125,-32.71484375,-30.76171875,-53.7109375,0.0,1722283914.2931166
-59.5703125,-39.0625,-35.15625,-67.87109375,0.0,1722283914.2969863
-56.640625,-40.0390625,-30.76171875,-71.2890625,0.0,1722283914.3008564
-58.10546875,-40.0390625,-34.1796875,-73.2421875,0.0,1722283914.3047264
-63.4765625,-46.875,-38.0859375,-66.40625,0.0,1722283914.309037
-58.10546875,-45.8984375,-35.15625,-59.08203125,0.0,1722283914.312907
-54.19921875,-42.48046875,-31.25,-62.01171875,0.0,1722283914.3167772
-58.59375,-41.9921875,-35.64453125,-67.3828125,0.0,1722283914.3206472
-53.22265625,-42.48046875,-38.57421875,-68.84765625,0.0,1722283914.3245175
-48.33984375,-47.36328125,-40.52734375,-70.3125,0.0,1722283914.3283875
-53.7109375,-43.45703125,-41.50390625,-74.21875,0.0,1722283914.3322577
-49.31640625,-39.55078125,-39.55078125,-61.5234375,0.0,1722283914.3361278
-56.15234375,-40.52734375,-42.96875,-67.87109375,0.0,1722283914.339998
-59.08203125,-37.109375,-44.921875,-75.68359375,0.0,1722283914.3438683
-49.8046875,-34.66796875,-38.0859375,-53.7109375,0.0,1722283914.3477383
-48.33984375,-36.62109375,-36.1328125,-49.8046875,0.0,1722283914.3516085
-46.38671875,-40.0390625,-45.41015625,-47.36328125,0.0,1722283914.3558629
-44.43359375,-41.50390625,-51.7578125,-37.109375,0.0,1722283914.3597333
-53.22265625,-44.921875,-48.33984375,-41.9921875,0.0,1722283914.3636036
-58.10546875,-47.8515625,-49.8046875,-42.48046875,0.0,1722283914.3674738
-51.7578125,-48.33984375,-58.10546875,-35.15625,0.0,1722283914.3713443
-56.15234375,-47.36328125,-62.98828125,-37.59765625,0.0,1722283914.3752146
-52.734375,-46.875,-63.4765625,-37.109375,0.0,1722283914.3790848
-36.1328125,-46.38671875,-62.5,-16.6015625,0.0,1722283914.3829553
-47.36328125,-44.921875,-74.21875,-38.57421875,0.0,1722283914.3868256
-217.28515625,-191.89453125,-224.12109375,-223.6328125,0.0,1722283914.3906958
-373.046875,-360.83984375,-391.11328125,-383.7890625,0.0,1722283914.3945663
-400.87890625,-391.6015625,-429.19921875,-415.0390625,0.0,1722283914.3984365
-414.0625,-391.11328125,-428.22265625,-422.8515625,0.0,1722283914.4026678
-380.859375,-369.140625,-404.296875,-392.08984375,0.0,1722283914.4065382
-358.88671875,-337.890625,-383.30078125,-374.0234375,0.0,1722283914.4104087
-341.30859375,-306.15234375,-353.515625,-350.09765625,0.0,1722283914.4142795
-300.78125,-276.3671875,-322.265625,-317.87109375,0.0,1722283914.41815
-266.6015625,-252.44140625,-300.29296875,-286.62109375,0.0,1722283914.4220204
-237.3046875,-230.95703125,-270.5078125,-247.55859375,0.0,1722283914.425891
-226.5625,-226.07421875,-253.41796875,-236.328125,0.0,1722283914.4297614
-205.078125,-206.54296875,-241.2109375,-221.6796875,0.0,1722283914.433632
-171.875,-175.29296875,-223.6328125,-185.546875,0.0,1722283914.4375024
-155.76171875,-160.64453125,-206.54296875,-168.9453125,0.0,1722283914.4413729
-139.16015625,-158.203125,-194.3359375,-165.0390625,0.0,1722283914.4452434
-134.765625,-146.97265625,-190.91796875,-149.4140625,0.0,1722283914.4494362
-127.44140625,-128.90625,-180.6640625,-134.765625,0.0,1722283914.453307
-111.328125,-123.046875,-171.38671875,-116.2109375,0.0,1722283914.4571774
