TP9,AF7,AF8,TP10,AUX,Timestamp
-75.1953125,-62.5,-47.8515625,-51.7578125,0.0,1722283800.7926142
-58.59375,-53.7109375,-39.0625,-37.59765625,0.0,1722283800.796375
-50.78125,-50.78125,-45.8984375,-35.15625,0.0,1722283800.8001359
-62.98828125,-55.17578125,-49.31640625,-32.71484375,0.0,1722283800.8038967
-58.10546875,-57.12890625,-40.0390625,-31.25,0.0,1722283800.8076575
-48.33984375,-46.38671875,-27.83203125,-22.4609375,0.0,1722283800.8114183
-42.96875,-40.0390625,-28.3203125,-1.953125,0.0,1722283800.8151793
-62.01171875,-62.01171875,-53.22265625,-35.64453125,0.0,1722283800.8189402
-64.453125,-62.01171875,-55.17578125,-54.19921875,0.0,1722283800.822701
-38.57421875,-45.41015625,-39.55078125,-32.71484375,0.0,1722283800.8264618
-33.69140625,-49.8046875,-38.0859375,-35.64453125,0.0,1722283800.8302226
-42.48046875,-65.91796875,-47.36328125,-45.41015625,0.0,1722283800.8339837
-42.96875,-62.5,-46.38671875,-34.1796875,0.0,1722283800.8390498
-41.9921875,-54.19921875,-44.43359375,-30.2734375,0.0,1722283800.842813
-46.38671875,-62.98828125,-49.8046875,-36.62109375,0.0,1722283800.8465765
-48.828125,-62.98828125,-54.6875,-37.109375,0.0,1722283800.8503397
-53.7109375,-58.10546875,-57.6171875,-50.29296875,0.0,1722283800.8541028
-52.24609375,-49.8046875,-37.59765625,-45.41015625,0.0,1722283800.8578663
-58.59375,-55.6640625,-36.62109375,-57.6171875,0.0,1722283800.8616295
-64.453125,-67.3828125,-55.17578125,-81.54296875,0.0,1722283800.8653927
-53.22265625,-69.82421875,-58.10546875,-83.0078125,0.0,1722283800.869156
-54.19921875,-72.75390625,-49.31640625,-67.3828125,0.0,1722283800.8729193
-67.3828125,-74.70703125,-48.33984375,-63.4765625,0.0,1722283800.8766825
-59.5703125,-74.21875,-52.24609375,-65.91796875,0.0,1722283800.8804457
-48.33984375,-69.3359375,-47.36328125,-61.5234375,0.0,1722283800.8861911
-54.19921875,-65.4296875,-47.36328125,-62.5,0.0,1722283800.8899581
-62.5,-71.77734375,-57.12890625,-64.453125,0.0,1722283800.893725
-50.78125,-61.5234375,-46.875,-62.5,0.0,1722283800.8974917
-40.0390625,-47.36328125,-31.73828125,-58.10546875,0.0,1722283800.9012587
-41.015625,-51.7578125,-40.52734375,-55.17578125,0.0,1722283800.9050255
-42.96875,-59.5703125,-41.9921875,-56.640625,0.0,1722283800.9087925
-42.96875,-59.5703125,-41.015625,-70.3125,0.0,1722283800.9125593
-31.25,-47.8515625,-42.96875,-60.05859375,0.0,1722283800.916326
-35.64453125,-49.31640625,-42.48046875,-41.50390625,0.0,1722283800.920093
-59.5703125,-58.59375,-54.19921875,-52.734375,0.0,1722283800.9238598
-51.26953125,-53.22265625,-50.78125,-44.43359375,0.0,1722283800.9276266
-40.0390625,-57.6171875,-37.59765625,-43.9453125,0.0,1722283800.933216
-47.36328125,-58.59375,-43.45703125,-54.19921875,0.0,1722283800.936986
-56.15234375,-59.5703125,-53.22265625,-60.546875,0.0,1722283800.940756
-42.96875,-56.640625,-45.8984375,-48.828125,0.0,1722283800.9445262
-20.99609375,-50.29296875,-38.57421875,-28.3203125,0.0,1722283800.9482963
-21.484375,-52.734375,-37.59765625,-21.97265625,0.0,1722283800.9520664
-26.3671875,-54.19921875,-42.48046875,-22.94921875,0.0,1722283800.9558365
-24.4140625,-54.6875,-43.9453125,-31.25,0.0,1722283800.9596066
-10.7421875,-48.33984375,-24.4140625,-21.484375,0.0,1722283800.9633768
-10.25390625,-61.03515625,-25.87890625,-23.92578125,0.0,1722283800.9671469
-23.92578125,-73.73046875,-45.41015625,-42.96875,0.0,1722283800.970917
-21.97265625,-56.15234375,-37.109375,-33.203125,0.0,1722283800.974687
-22.94921875,-43.45703125,-29.296875,-32.71484375,0.0,1722283800.9801774
-30.76171875,-48.33984375,-37.59765625,-45.8984375,0.0,1722283800.9839506
-24.90234375,-48.33984375,-43.45703125,-44.43359375,0.0,1722283800.9877236
-7.8125,-36.62109375,-37.59765625,-26.3671875,0.0,1722283800.9914968
-2.44140625,-30.76171875,-32.2265625,-18.06640625,0.0,1722283800.9952698
-2.44140625,-39.0625,-32.2265625,-21.97265625,0.0,1722283800.9990427
-7.8125,-39.55078125,-30.2734375,-16.11328125,0.0,1722283801.002816
-8.30078125,-26.85546875,-20.99609375,-6.8359375,0.0,1722283801.006589
-1.46484375,-22.4609375,-14.6484375,-8.7890625,0.0,1722283801.0103621
-16.6015625,-34.1796875,-31.25,-32.2265625,0.0,1722283801.0141351
-11.71875,-34.1796875,-35.15625,-25.390625,0.0,1722283801.0179083
-0.9765625,-28.80859375,-29.78515625,-1.953125,0.0,1722283801.0216813
-20.99609375,-39.0625,-33.69140625,-33.203125,0.0,1722283801.027057
-24.4140625,-43.9453125,-36.62109375,-53.7109375,0.0,1722283801.0308328
-6.8359375,-32.2265625,-30.2734375,-32.2265625,0.0,1722283801.0346086
-6.8359375,-32.2265625,-29.296875,-22.94921875,0.0,1722283801.0383844
-15.13671875,-34.1796875,-31.73828125,-32.2265625,0.0,1722283801.0421603
-11.23046875,-23.92578125,-23.4375,-24.90234375,0.0,1722283801.045936
-12.6953125,-24.90234375,-25.87890625,-20.99609375,0.0,1722283801.049712
-5.859375,-24.4140625,-16.6015625,-10.25390625,0.0,1722283801.0534875
-18.06640625,-30.2734375,-18.5546875,-17.578125,0.0,1722283801.0572634
-36.62109375,-45.41015625,-34.1796875,-41.015625,0.0,1722283801.0610392
-17.08984375,-36.1328125,-27.34375,-30.2734375,0.0,1722283801.064815
-16.11328125,-36.62109375,-30.76171875,-41.015625,0.0,1722283801.0685909
-22.94921875,-43.9453125,-37.109375,-54.6875,0.0,1722283801.073902
-11.23046875,-38.0859375,-32.71484375,-48.33984375,0.0,1722283801.0776803
0.9765625,-30.2734375,-19.53125,-41.50390625,0.0,1722283801.0814588
-0.48828125,-29.296875,-15.625,-35.64453125,0.0,1722283801.085237
-4.39453125,-30.2734375,-23.92578125,-34.66796875,0.0,1722283801.0890155
4.8828125,-20.99609375,-14.6484375,-35.64453125,0.0,1722283801.092794
14.16015625,-16.6015625,-5.859375,-27.83203125,0.0,1722283801.0965722
21.484375,-12.6953125,-4.39453125,-14.6484375,0.0,1722283801.1003506
-6.34765625,-21.484375,-19.53125,-38.0859375,0.0,1722283801.1041288
-13.18359375,-22.94921875,-19.04296875,-39.0625,0.0,1722283801.1079073
8.30078125,-11.23046875,-1.46484375,-28.3203125,0.0,1722283801.1116858
4.39453125,-12.6953125,-5.37109375,-33.69140625,0.0,1722283801.115464
-6.8359375,-25.87890625,-25.390625,-43.9453125,0.0,1722283801.1206186
-5.859375,-25.87890625,-18.5546875,-39.0625,0.0,1722283801.1243992
-5.859375,-20.5078125,-11.23046875,-30.2734375,0.0,1722283801.1281798
-5.37109375,-29.296875,-26.3671875,-40.52734375,0.0,1722283801.1319604
-5.37109375,-30.2734375,-25.390625,-33.69140625,0.0,1722283801.135741
-3.90625,-29.296875,-20.01953125,-30.2734375,0.0,1722283801.1395216
14.6484375,-16.6015625,-0.48828125,-26.85546875,0.0,1722283801.1433022
9.27734375,-16.11328125,0.9765625,-30.76171875,0.0,1722283801.1470828
-8.7890625,-31.73828125,-19.04296875,-46.875,0.0,1722283801.1508634
11.23046875,-26.3671875,-10.7421875,-28.3203125,0.0,1722283801.154644
20.99609375,-25.87890625,-15.13671875,-28.3203125,0.0,1722283801.1584246
18.5546875,-25.87890625,-20.01953125,-43.45703125,0.0,1722283801.1622052
11.23046875,-26.85546875,-20.01953125,-39.55078125,0.0,1722283801.1673272
7.32421875,-31.73828125,-16.6015625,-31.73828125,0.0,1722283801.17111
7.8125,-30.76171875,-17.578125,-27.83203125,0.0,1722283801.1748927
4.8828125,-35.64453125,-20.01953125,-25.87890625,0.0,1722283801.1786754
8.7890625,-46.875,-18.5546875,-21.484375,0.0,1722283801.1824582
8.30078125,-36.62109375,-22.94921875,-20.99609375,0.0,1722283801.186241
13.671875,-21.97265625,-18.06640625,-5.859375,0.0,1722283801.1900237
3.90625,-34.66796875,-29.78515625,-13.671875,0.0,1722283801.1938064
-1.46484375,-38.57421875,-32.71484375,-23.4375,0.0,1722283801.1975892
3.41796875,-26.3671875,-20.01953125,-11.23046875,0.0,1722283801.201372
-3.90625,-23.4375,-29.78515625,-19.04296875,0.0,1722283801.2051547
-9.765625,-29.78515625,-42.48046875,-29.78515625,0.0,1722283801.2089374
-2.9296875,-28.80859375,-33.203125,-24.4140625,0.0,1722283801.2138467
6.8359375,-22.4609375,-18.06640625,-11.23046875,0.0,1722283801.217631
-4.39453125,-25.390625,-20.01953125,-17.578125,0.0,1722283801.2214158
-15.625,-34.1796875,-28.3203125,-30.76171875,0.0,1722283801.2252002
-4.39453125,-27.34375,-24.4140625,-31.25,0.0,1722283801.2289848
20.99609375,-12.6953125,-11.71875,-1.953125,0.0,1722283801.2327693
9.27734375,-28.3203125,-23.92578125,-9.765625,0.0,1722283801.236554
-20.01953125,-47.8515625,-47.8515625,-45.8984375,0.0,1722283801.2403383
-2.9296875,-34.1796875,-38.57421875,-32.71484375,0.0,1722283801.244123
9.765625,-32.71484375,-31.25,-22.4609375,0.0,1722283801.2479074
0.48828125,-38.0859375,-36.62109375,-29.296875,0.0,1722283801.251692
20.5078125,-34.66796875,-36.62109375,-1.46484375,0.0,1722283801.2554765
35.64453125,-31.25,-24.90234375,14.6484375,0.0,1722283801.2610998
10.25390625,-23.4375,-20.99609375,-10.7421875,0.0,1722283801.264887
0.0,-25.390625,-26.85546875,-12.20703125,0.0,1722283801.2686746
13.18359375,-30.2734375,-29.78515625,3.41796875,0.0,1722283801.272462
26.85546875,-23.92578125,-25.87890625,28.3203125,0.0,1722283801.2762492
33.203125,-22.4609375,-18.5546875,41.015625,0.0,1722283801.2800367
32.2265625,-31.73828125,-26.85546875,29.78515625,0.0,1722283801.283824
35.64453125,-31.73828125,-33.203125,25.390625,0.0,1722283801.2876115
40.52734375,-20.99609375,-19.53125,26.85546875,0.0,1722283801.2913988
45.41015625,-14.16015625,-14.16015625,27.34375,0.0,1722283801.295186
32.2265625,-23.4375,-28.3203125,13.671875,0.0,1722283801.2989736
35.15625,-23.92578125,-28.3203125,14.6484375,0.0,1722283801.3027608
43.9453125,-20.5078125,-18.5546875,20.5078125,0.0,1722283801.308195
33.203125,-26.3671875,-16.11328125,19.04296875,0.0,1722283801.311985
30.2734375,-28.3203125,-20.5078125,9.765625,0.0,1722283801.3157747
35.64453125,-24.90234375,-21.97265625,11.71875,0.0,1722283801.3195646
37.109375,-15.13671875,-9.765625,17.578125,0.0,1722283801.3233545
44.43359375,-8.7890625,-4.39453125,10.25390625,0.0,1722283801.3271444
44.921875,-13.18359375,-15.625,4.39453125,0.0,1722283801.3309343
29.296875,-19.04296875,-20.99609375,11.71875,0.0,1722283801.3347242
48.33984375,-0.48828125,-4.8828125,37.59765625,0.0,1722283801.338514
52.734375,0.48828125,-4.8828125,24.4140625,0.0,1722283801.3423038
29.78515625,-21.484375,-20.01953125,2.9296875,0.0,1722283801.3460937
34.1796875,-25.87890625,-13.18359375,4.8828125,0.0,1722283801.3498836
20.99609375,-29.78515625,-19.04296875,-1.46484375,0.0,1722283801.355214
11.71875,-19.53125,-20.01953125,-3.90625,0.0,1722283801.3590064
25.390625,-7.32421875,-14.16015625,-1.953125,0.0,1722283801.3627985
33.69140625,-6.8359375,-7.8125,10.7421875,0.0,1722283801.3665907
27.83203125,-6.34765625,0.9765625,28.80859375,0.0,1722283801.3703828
33.69140625,-5.859375,1.953125,26.3671875,0.0,1722283801.374175
29.296875,-14.6484375,-7.8125,11.23046875,0.0,1722283801.3779671
22.4609375,-16.11328125,-1.953125,20.5078125,0.0,1722283801.3817594
27.34375,-11.23046875,6.34765625,22.94921875,0.0,1722283801.3855515
9.765625,-21.484375,-18.5546875,-4.8828125,0.0,1722283801.3893437
17.08984375,-19.53125,-20.5078125,-9.765625,0.0,1722283801.3931358
43.45703125,-11.71875,0.9765625,2.9296875,0.0,1722283801.396928
41.015625,-13.671875,-1.46484375,9.765625,0.0,1722283801.4021413
28.3203125,-10.25390625,-10.7421875,11.23046875,0.0,1722283801.4059355
27.34375,-7.8125,-8.7890625,6.8359375,0.0,1722283801.4097297
29.78515625,-10.7421875,-0.9765625,6.34765625,0.0,1722283801.413524
32.71484375,-11.23046875,-1.953125,11.23046875,0.0,1722283801.417318
32.71484375,-11.23046875,-6.8359375,16.11328125,0.0,1722283801.4211123
24.4140625,-17.08984375,-9.27734375,12.6953125,0.0,1722283801.4249067
28.3203125,-8.30078125,7.32421875,19.53125,0.0,1722283801.428701
21.97265625,-10.7421875,3.90625,14.16015625,0.0,1722283801.432495
11.23046875,-26.85546875,-17.08984375,-0.9765625,0.0,1722283801.4362893
22.4609375,-19.04296875,-6.8359375,6.8359375,0.0,1722283801.4400835
30.76171875,-27.34375,-13.18359375,18.5546875,0.0,1722283801.443878
45.41015625,-28.80859375,-21.484375,31.73828125,0.0,1722283801.4489582
30.76171875,-11.23046875,-15.13671875,14.6484375,0.0,1722283801.4527543
22.94921875,-8.7890625,-9.765625,-3.90625,0.0,1722283801.4565504
42.96875,-6.8359375,-2.44140625,12.20703125,0.0,1722283801.4603465
66.89453125,-4.39453125,4.8828125,35.15625,0.0,1722283801.4641426
78.61328125,-8.30078125,-0.48828125,48.828125,0.0,1722283801.4679387
77.63671875,-10.25390625,-0.9765625,41.9921875,0.0,1722283801.4717348
92.28515625,-6.8359375,5.37109375,53.7109375,0.0,1722283801.4755309
85.44921875,-14.6484375,-5.859375,50.78125,0.0,1722283801.479327
67.3828125,-13.671875,-3.90625,43.45703125,0.0,1722283801.483123
77.63671875,-1.953125,10.7421875,72.265625,0.0,1722283801.4869192
75.68359375,-4.8828125,11.23046875,74.70703125,0.0,1722283801.4907153
58.10546875,-11.71875,2.9296875,30.76171875,0.0,1722283801.495742
70.80078125,-0.48828125,9.765625,29.296875,0.0,1722283801.4995399
76.66015625,12.6953125,18.5546875,49.31640625,0.0,1722283801.5033376
59.08203125,3.90625,9.765625,39.55078125,0.0,1722283801.5071354
65.4296875,-1.953125,11.23046875,45.41015625,0.0,1722283801.5109334
80.56640625,4.8828125,21.97265625,56.640625,0.0,1722283801.5147312
80.56640625,8.7890625,28.3203125,67.3828125,0.0,1722283801.518529
57.12890625,5.37109375,13.671875,61.03515625,0.0,1722283801.5223267
32.2265625,-8.7890625,-5.37109375,38.0859375,0.0,1722283801.5261247
44.921875,-7.32421875,1.46484375,41.015625,0.0,1722283801.5299225
48.828125,-8.7890625,1.46484375,37.59765625,0.0,1722283801.5337203
36.62109375,-14.6484375,-3.41796875,43.45703125,0.0,1722283801.537518
29.78515625,-10.7421875,-3.90625,41.9921875,0.0,1722283801.5424454
47.36328125,0.0,6.34765625,28.80859375,0.0,1722283801.5462449
54.19921875,4.39453125,5.37109375,44.921875,0.0,1722283801.5500443
26.3671875,-5.859375,-8.30078125,26.85546875,0.0,1722283801.5538435
31.25,-5.37109375,5.37109375,17.578125,0.0,1722283801.557643
54.19921875,3.41796875,22.4609375,43.9453125,0.0,1722283801.5614424
59.5703125,11.23046875,17.578125,59.5703125,0.0,1722283801.5652418
36.62109375,0.9765625,-0.48828125,45.41015625,0.0,1722283801.5690413
29.296875,-3.41796875,2.9296875,27.34375,0.0,1722283801.5728405
49.31640625,4.39453125,15.625,39.0625,0.0,1722283801.57664
57.6171875,6.8359375,9.765625,41.9921875,0.0,1722283801.5804393
45.8984375,0.9765625,6.8359375,43.45703125,0.0,1722283801.5842388
29.78515625,0.0,8.7890625,51.26953125,0.0,1722283801.5891452
43.45703125,5.37109375,16.6015625,49.31640625,0.0,1722283801.592946
73.73046875,16.11328125,13.671875,65.4296875,0.0,1722283801.5967472
73.73046875,16.6015625,16.11328125,63.4765625,0.0,1722283801.600548
56.640625,8.7890625,26.85546875,39.55078125,0.0,1722283801.604349
47.8515625,15.625,42.96875,46.875,0.0,1722283801.6081498
24.4140625,3.90625,38.57421875,27.34375,0.0,1722283801.6119506
6.8359375,-13.671875,14.6484375,-8.30078125,0.0,1722283801.6157515
7.8125,-4.39453125,22.4609375,2.44140625,0.0,1722283801.6195524
13.18359375,-0.48828125,35.64453125,15.625,0.0,1722283801.6233535
4.39453125,-9.27734375,36.1328125,3.41796875,0.0,1722283801.6271544
1.46484375,-7.8125,40.0390625,-3.90625,0.0,1722283801.6309552
11.71875,0.0,49.8046875,8.7890625,0.0,1722283801.6363065
11.71875,-6.8359375,53.22265625,11.71875,0.0,1722283801.6401095
14.6484375,-7.8125,54.19921875,14.16015625,0.0,1722283801.6439126
23.92578125,7.32421875,60.546875,21.97265625,0.0,1722283801.6477156
36.1328125,16.11328125,66.40625,34.66796875,0.0,1722283801.6515186
58.10546875,22.94921875,67.3828125,53.22265625,0.0,1722283801.6553216
58.10546875,31.73828125,58.59375,51.26953125,0.0,1722283801.6591246
49.31640625,29.296875,51.7578125,40.52734375,0.0,1722283801.6629276
65.91796875,33.203125,65.4296875,48.33984375,0.0,1722283801.6667306
66.89453125,39.0625,71.2890625,59.5703125,0.0,1722283801.6705334
46.38671875,30.76171875,56.640625,46.875,0.0,1722283801.6743364
56.640625,31.73828125,67.3828125,54.6875,0.0,1722283801.6781394
68.359375,35.64453125,75.68359375,67.87109375,0.0,1722283801.6833637
68.84765625,47.8515625,72.75390625,66.40625,0.0,1722283801.6871686
71.2890625,50.29296875,67.87109375,60.546875,0.0,1722283801.6909735
73.2421875,50.78125,67.87109375,62.5,0.0,1722283801.6947784
80.078125,59.08203125,77.63671875,75.1953125,0.0,1722283801.6985834
82.03125,62.01171875,77.63671875,88.8671875,0.0,1722283801.702388
72.75390625,48.828125,68.84765625,85.44921875,0.0,1722283801.706193
74.70703125,50.29296875,67.87109375,85.44921875,0.0,1722283801.709998
107.91015625,78.125,90.8203125,110.83984375,0.0,1722283801.7138028
106.93359375,71.77734375,92.7734375,97.16796875,0.0,1722283801.7176075
94.23828125,67.3828125,86.42578125,87.890625,0.0,1722283801.7214124
119.62890625,96.6796875,112.79296875,123.046875,0.0,1722283801.7252173
145.5078125,112.79296875,125.48828125,135.7421875,0.0,1722283801.7305062
163.0859375,123.046875,127.9296875,142.578125,0.0,1722283801.734313
165.0390625,137.20703125,138.18359375,164.0625,0.0,1722283801.7381198
179.19921875,157.71484375,155.76171875,188.4765625,0.0,1722283801.7419264
206.54296875,176.26953125,167.48046875,207.03125,0.0,1722283801.7457333
209.47265625,183.10546875,173.33984375,202.63671875,0.0,1722283801.74954
200.1953125,187.98828125,176.7578125,196.77734375,0.0,1722283801.753347
204.58984375,197.265625,182.12890625,204.1015625,0.0,1722283801.7571537
215.8203125,200.1953125,187.01171875,208.49609375,0.0,1722283801.7609606
205.078125,185.546875,175.78125,191.40625,0.0,1722283801.7647674
205.078125,187.98828125,183.10546875,197.75390625,0.0,1722283801.7685742
214.84375,205.078125,195.80078125,218.75,0.0,1722283801.772381
215.8203125,215.33203125,198.73046875,214.84375,0.0,1722283801.7774677
223.6328125,211.42578125,198.73046875,200.1953125,0.0,1722283801.7812762
234.375,220.21484375,207.03125,220.21484375,0.0,1722283801.7850847
241.2109375,233.88671875,217.28515625,248.046875,0.0,1722283801.7888932
240.72265625,239.74609375,221.6796875,229.4921875,0.0,1722283801.7927015
238.76953125,248.046875,232.421875,233.3984375,0.0,1722283801.79651
244.140625,250.0,225.09765625,239.74609375,0.0,1722283801.8003185
277.34375,285.15625,250.48828125,276.85546875,0.0,1722283801.804127
292.48046875,309.5703125,262.20703125,289.55078125,0.0,1722283801.8079352
276.85546875,290.0390625,239.2578125,260.7421875,0.0,1722283801.8117437
285.64453125,285.64453125,248.046875,274.4140625,0.0,1722283801.8155522
286.1328125,281.73828125,249.51171875,269.53125,0.0,1722283801.8193607
279.78515625,272.4609375,243.1640625,269.53125,0.0,1722283801.824294
280.2734375,273.92578125,242.67578125,269.53125,0.0,1722283801.8281038
300.29296875,278.80859375,245.1171875,278.3203125,0.0,1722283801.8319137
332.51953125,276.3671875,240.72265625,274.4140625,0.0,1722283801.8357236
354.00390625,271.97265625,240.234375,264.16015625,0.0,1722283801.8395336
362.79296875,271.484375,238.76953125,273.4375,0.0,1722283801.8433433
358.3984375,257.8125,228.02734375,269.04296875,0.0,1722283801.8471532
353.02734375,242.67578125,212.890625,266.11328125,0.0,1722283801.850963
317.87109375,222.65625,180.6640625,230.46875,0.0,1722283801.8547728
297.8515625,210.9375,174.31640625,208.0078125,0.0,1722283801.8585827
297.8515625,208.0078125,178.22265625,215.33203125,0.0,1722283801.8623927
282.2265625,191.40625,164.0625,199.21875,0.0,1722283801.8662026
248.53515625,175.78125,148.4375,180.6640625,0.0,1722283801.8710818
222.65625,166.50390625,139.16015625,167.48046875,0.0,1722283801.874893
217.7734375,165.52734375,145.01953125,170.8984375,0.0,1722283801.878704
198.73046875,142.08984375,125.48828125,154.296875,0.0,1722283801.8825154
160.64453125,100.5859375,94.23828125,130.37109375,0.0,1722283801.8863266
123.53515625,78.61328125,92.28515625,121.09375,0.0,1722283801.8901377
106.4453125,74.21875,101.07421875,98.14453125,0.0,1722283801.893949
102.5390625,65.91796875,91.30859375,74.70703125,0.0,1722283801.8977602
74.21875,50.78125,77.63671875,53.7109375,0.0,1722283801.9015713
54.6875,50.29296875,87.890625,61.5234375,0.0,1722283801.9053826
69.3359375,41.015625,84.9609375,79.1015625,0.0,1722283801.9091938
68.84765625,34.66796875,78.61328125,67.87109375,0.0,1722283801.9130049
60.546875,30.2734375,72.75390625,61.03515625,0.0,1722283801.9177623
73.2421875,30.2734375,70.3125,71.2890625,0.0,1722283801.9215748
69.82421875,35.15625,62.98828125,51.26953125,0.0,1722283801.9253871
56.640625,24.4140625,46.875,41.9921875,0.0,1722283801.9291995
68.84765625,27.34375,57.12890625,62.5,0.0,1722283801.9330118
70.80078125,34.66796875,64.453125,74.70703125,0.0,1722283801.936824
61.5234375,32.2265625,62.5,78.61328125,0.0,1722283801.9406364
62.5,23.92578125,51.26953125,62.5,0.0,1722283801.944449
67.87109375,22.4609375,47.8515625,54.19921875,0.0,1722283801.9482613
79.1015625,30.2734375,59.08203125,66.89453125,0.0,1722283801.9520736
82.03125,29.296875,55.6640625,74.70703125,0.0,1722283801.955886
75.68359375,22.94921875,46.875,61.5234375,0.0,1722283801.9596982
76.66015625,24.4140625,52.24609375,55.6640625,0.0,1722283801.9643939
82.03125,34.1796875,56.15234375,71.2890625,0.0,1722283801.9682074
87.40234375,39.55078125,58.59375,71.2890625,0.0,1722283801.9720209
81.0546875,31.73828125,46.38671875,48.33984375,0.0,1722283801.9758341
71.77734375,29.296875,37.59765625,41.50390625,0.0,1722283801.9796476
97.16796875,41.015625,57.6171875,70.80078125,0.0,1722283801.9834611
93.26171875,33.69140625,46.38671875,60.05859375,0.0,1722283801.9872744
82.03125,27.34375,36.62109375,54.19921875,0.0,1722283801.991088
91.796875,39.55078125,51.7578125,78.125,0.0,1722283801.9949014
82.51953125,38.57421875,47.8515625,77.1484375,0.0,1722283801.9987147
75.68359375,32.2265625,42.96875,66.40625,0.0,1722283802.0025282
70.80078125,37.59765625,44.43359375,61.03515625,0.0,1722283802.0063417
76.171875,41.50390625,48.33984375,63.4765625,0.0,1722283802.0115533
83.984375,37.59765625,50.78125,51.26953125,0.0,1722283802.0153682
75.1953125,32.2265625,41.015625,51.7578125,0.0,1722283802.0191834
65.91796875,29.296875,36.1328125,60.546875,0.0,1722283802.0229986
76.66015625,35.15625,45.8984375,73.2421875,0.0,1722283802.0268135
90.33203125,41.9921875,47.8515625,70.3125,0.0,1722283802.0306287
86.42578125,40.52734375,34.66796875,53.7109375,0.0,1722283802.0344436
75.68359375,30.76171875,27.34375,55.17578125,0.0,1722283802.0382588
78.61328125,35.15625,35.64453125,58.59375,0.0,1722283802.042074
83.0078125,42.96875,44.921875,66.89453125,0.0,1722283802.045889
78.61328125,32.2265625,38.57421875,64.94140625,0.0,1722283802.049704
81.0546875,35.64453125,41.015625,72.75390625,0.0,1722283802.0535192
89.35546875,47.8515625,55.6640625,77.63671875,0.0,1722283802.0585866
91.30859375,48.33984375,56.15234375,73.73046875,0.0,1722283802.0624032
79.1015625,41.9921875,44.43359375,67.3828125,0.0,1722283802.0662198
84.47265625,40.0390625,44.43359375,70.80078125,0.0,1722283802.0700362
101.07421875,49.8046875,56.640625,86.42578125,0.0,1722283802.0738528
107.421875,53.22265625,57.6171875,82.51953125,0.0,1722283802.0776694
106.93359375,49.31640625,49.8046875,66.89453125,0.0,1722283802.081486
106.4453125,46.38671875,51.26953125,64.94140625,0.0,1722283802.0853026
115.72265625,56.15234375,66.40625,78.61328125,0.0,1722283802.089119
101.07421875,54.6875,60.546875,73.2421875,0.0,1722283802.0929356
76.66015625,36.62109375,44.921875,60.546875,0.0,1722283802.0967522
91.30859375,41.9921875,55.17578125,76.66015625,0.0,1722283802.1005688
104.4921875,47.36328125,52.734375,84.47265625,0.0,1722283802.1055603
93.75,43.9453125,39.0625,71.77734375,0.0,1722283802.1093783
89.84375,41.9921875,33.203125,63.96484375,0.0,1722283802.1131961
108.88671875,44.921875,36.1328125,61.5234375,0.0,1722283802.1170142
115.72265625,48.828125,39.55078125,58.10546875,0.0,1722283802.120832
109.86328125,45.8984375,40.0390625,74.70703125,0.0,1722283802.12465
104.98046875,42.48046875,43.45703125,99.609375,0.0,1722283802.1284678
105.46875,43.45703125,45.8984375,89.84375,0.0,1722283802.1322858
98.6328125,36.62109375,41.015625,82.03125,0.0,1722283802.1361036
73.73046875,21.97265625,28.80859375,64.453125,0.0,1722283802.1399217
73.2421875,26.85546875,32.2265625,62.98828125,0.0,1722283802.1437395
74.70703125,34.1796875,34.1796875,60.05859375,0.0,1722283802.1475575
79.1015625,30.76171875,27.34375,32.2265625,0.0,1722283802.1524708
85.9375,27.34375,21.97265625,28.3203125,0.0,1722283802.1562898
84.9609375,32.2265625,26.3671875,37.109375,0.0,1722283802.160109
70.3125,27.83203125,29.78515625,38.0859375,0.0,1722283802.1639283
42.96875,17.08984375,24.4140625,24.90234375,0.0,1722283802.1677475
48.828125,13.18359375,22.94921875,29.78515625,0.0,1722283802.1715665
50.78125,2.44140625,13.18359375,20.99609375,0.0,1722283802.1753857
50.78125,13.671875,25.87890625,19.04296875,0.0,1722283802.179205
34.66796875,12.6953125,24.90234375,23.4375,0.0,1722283802.183024
11.71875,-9.27734375,-1.46484375,7.8125,0.0,1722283802.1868432
30.2734375,0.0,3.90625,17.578125,0.0,1722283802.1906624
31.25,7.8125,10.25390625,21.484375,0.0,1722283802.1944816
25.87890625,7.32421875,17.578125,20.99609375,0.0,1722283802.1992857
25.87890625,0.48828125,10.7421875,24.90234375,0.0,1722283802.2031062
28.80859375,-0.48828125,6.34765625,35.64453125,0.0,1722283802.2069263
37.109375,1.953125,7.8125,42.48046875,0.0,1722283802.2107468
33.69140625,-1.46484375,8.30078125,34.66796875,0.0,1722283802.214567
32.2265625,2.9296875,14.16015625,25.390625,0.0,1722283802.2183871
37.109375,2.9296875,13.18359375,34.66796875,0.0,1722283802.2222075
36.62109375,-2.44140625,14.16015625,52.24609375,0.0,1722283802.2260277
20.99609375,-7.32421875,-2.9296875,23.92578125,0.0,1722283802.2298481
22.94921875,2.44140625,-4.8828125,11.23046875,0.0,1722283802.2336683
29.296875,0.0,2.9296875,19.04296875,0.0,1722283802.2374885
34.66796875,-4.39453125,2.9296875,12.6953125,0.0,1722283802.241309
25.87890625,-3.90625,7.32421875,-2.9296875,0.0,1722283802.2461104
17.08984375,-2.9296875,7.32421875,-4.39453125,0.0,1722283802.2499318
33.203125,2.44140625,8.30078125,6.34765625,0.0,1722283802.2537532
39.55078125,4.39453125,8.30078125,1.46484375,0.0,1722283802.2575746
36.1328125,5.37109375,9.27734375,-0.48828125,0.0,1722283802.261396
42.96875,8.7890625,14.16015625,20.01953125,0.0,1722283802.2652173
54.6875,17.578125,27.34375,23.4375,0.0,1722283802.2690387
43.45703125,11.71875,17.578125,29.296875,0.0,1722283802.27286
13.671875,-4.39453125,-1.953125,39.55078125,0.0,1722283802.2766814
21.484375,1.953125,5.859375,16.6015625,0.0,1722283802.2805028
39.55078125,5.859375,6.34765625,11.71875,0.0,1722283802.2843242
39.0625,4.39453125,1.46484375,14.6484375,0.0,1722283802.2881455
17.578125,2.44140625,4.8828125,5.859375,0.0,1722283802.2929046
25.87890625,7.32421875,12.20703125,14.6484375,0.0,1722283802.296727
46.38671875,0.48828125,11.23046875,14.6484375,0.0,1722283802.3005493
23.92578125,-14.6484375,-2.9296875,8.7890625,0.0,1722283802.3043718
19.53125,-12.6953125,-0.48828125,16.11328125,0.0,1722283802.3081942
33.69140625,-4.39453125,14.6484375,16.6015625,0.0,1722283802.3120165
44.43359375,0.9765625,16.11328125,12.6953125,0.0,1722283802.3158388
30.2734375,-6.34765625,-3.90625,-14.16015625,0.0,1722283802.3196614
9.765625,-11.23046875,-17.578125,-27.34375,0.0,1722283802.3234837
9.27734375,-7.8125,-7.32421875,-7.8125,0.0,1722283802.327306
4.8828125,-11.23046875,-6.34765625,-5.859375,0.0,1722283802.3311286
-4.8828125,-19.04296875,-21.97265625,-18.06640625,0.0,1722283802.334951
-7.8125,-20.99609375,-24.90234375,-26.3671875,0.0,1722283802.3395686
-5.859375,-22.94921875,-16.6015625,-20.99609375,0.0,1722283802.343392
-15.625,-20.99609375,-16.11328125,-23.92578125,0.0,1722283802.3472152
-29.296875,-22.94921875,-24.4140625,-42.96875,0.0,1722283802.3510385
-20.5078125,-26.3671875,-18.5546875,-28.3203125,0.0,1722283802.3548615
5.859375,-14.6484375,-6.8359375,4.8828125,0.0,1722283802.3586848
-4.39453125,-22.94921875,-20.99609375,-11.71875,0.0,1722283802.362508
-15.13671875,-31.73828125,-27.83203125,-30.76171875,0.0,1722283802.3663313
-15.13671875,-23.92578125,-22.4609375,-31.73828125,0.0,1722283802.3701546
-27.83203125,-32.71484375,-28.3203125,-45.41015625,0.0,1722283802.373978
-20.01953125,-42.48046875,-26.3671875,-26.85546875,0.0,1722283802.3778012
-29.296875,-49.8046875,-27.83203125,-27.34375,0.0,1722283802.3816245
-36.62109375,-43.45703125,-32.71484375,-34.66796875,0.0,1722283802.386711
-29.296875,-30.76171875,-28.80859375,-32.2265625,0.0,1722283802.3905356
-27.34375,-30.2734375,-23.92578125,-44.921875,0.0,1722283802.39436
-23.92578125,-29.78515625,-24.4140625,-36.1328125,0.0,1722283802.3981848
-20.5078125,-30.76171875,-23.4375,-33.203125,0.0,1722283802.4020092
-14.16015625,-36.1328125,-22.94921875,-45.41015625,0.0,1722283802.405834
-18.06640625,-37.109375,-27.34375,-48.828125,0.0,1722283802.4096584
-30.76171875,-40.0390625,-31.73828125,-49.31640625,0.0,1722283802.4134831
-17.08984375,-35.64453125,-25.390625,-43.9453125,0.0,1722283802.4173076
-9.765625,-29.78515625,-24.90234375,-35.15625,0.0,1722283802.4211323
-27.83203125,-38.0859375,-37.59765625,-47.8515625,0.0,1722283802.424957
-28.80859375,-34.66796875,-37.59765625,-56.640625,0.0,1722283802.4287815
-23.92578125,-26.85546875,-31.25,-45.41015625,0.0,1722283802.4337978
-26.85546875,-36.1328125,-31.73828125,-36.62109375,0.0,1722283802.4376237
-28.80859375,-43.45703125,-35.64453125,-39.55078125,0.0,1722283802.4414494
-30.2734375,-36.1328125,-30.76171875,-30.76171875,0.0,1722283802.4452753
-28.3203125,-36.1328125,-29.296875,-33.203125,0.0,1722283802.4491012
-24.90234375,-34.1796875,-24.90234375,-41.50390625,0.0,1722283802.452927
-31.73828125,-35.64453125,-32.71484375,-42.48046875,0.0,1722283802.456753
-28.80859375,-45.8984375,-38.57421875,-54.19921875,0.0,1722283802.4605787
-15.625,-33.69140625,-13.671875,-35.64453125,0.0,1722283802.4644046
-23.92578125,-34.66796875,-24.4140625,-49.31640625,0.0,1722283802.4682305
-29.78515625,-54.6875,-55.17578125,-78.125,0.0,1722283802.4720564
-30.2734375,-51.26953125,-42.96875,-57.6171875,0.0,1722283802.4758823
-28.3203125,-49.8046875,-30.2734375,-54.6875,0.0,1722283802.480793
-20.5078125,-62.5,-35.15625,-46.875,0.0,1722283802.4846199
-24.4140625,-62.01171875,-45.41015625,-55.17578125,0.0,1722283802.488447
-30.2734375,-50.29296875,-45.8984375,-74.70703125,0.0,1722283802.4922738
-24.90234375,-43.9453125,-43.45703125,-66.40625,0.0,1722283802.496101
-35.64453125,-48.828125,-47.8515625,-73.2421875,0.0,1722283802.499928
-51.7578125,-59.5703125,-49.8046875,-80.56640625,0.0,1722283802.5037549
-42.48046875,-54.6875,-44.43359375,-68.359375,0.0,1722283802.507582
-45.41015625,-49.8046875,-32.71484375,-61.5234375,0.0,1722283802.5114088
-65.4296875,-53.22265625,-48.33984375,-81.0546875,0.0,1722283802.515236
-59.5703125,-50.78125,-52.24609375,-82.03125,0.0,1722283802.5190628
-42.96875,-48.828125,-41.9921875,-74.70703125,0.0,1722283802.5228899
-50.29296875,-47.8515625,-47.8515625,-87.40234375,0.0,1722283802.5277247
-62.98828125,-56.640625,-49.31640625,-98.14453125,0.0,1722283802.5315528
-59.5703125,-58.59375,-42.96875,-84.9609375,0.0,1722283802.5353808
-59.5703125,-58.59375,-48.33984375,-67.3828125,0.0,1722283802.539209
-66.40625,-62.98828125,-54.6875,-76.66015625,0.0,1722283802.543037
-73.73046875,-58.59375,-55.17578125,-86.42578125,0.0,1722283802.546865
-66.40625,-62.5,-60.05859375,-80.078125,0.0,1722283802.550693
-40.52734375,-55.6640625,-47.8515625,-59.08203125,0.0,1722283802.554521
-56.15234375,-61.5234375,-55.17578125,-75.1953125,0.0,1722283802.5583491
-81.0546875,-78.125,-73.2421875,-101.07421875,0.0,1722283802.5621772
-62.5,-69.82421875,-56.15234375,-79.58984375,0.0,1722283802.566005
-55.17578125,-56.640625,-51.26953125,-73.2421875,0.0,1722283802.569833
-62.01171875,-58.10546875,-58.10546875,-84.9609375,0.0,1722283802.5745695
-56.15234375,-62.5,-52.24609375,-80.078125,0.0,1722283802.5783985
-48.828125,-60.05859375,-50.29296875,-75.1953125,0.0,1722283802.5822275
-61.5234375,-73.2421875,-61.03515625,-76.66015625,0.0,1722283802.5860562
-72.75390625,-80.078125,-72.75390625,-83.0078125,0.0,1722283802.5898852
-66.89453125,-75.1953125,-66.40625,-75.1953125,0.0,1722283802.5937142
-60.05859375,-76.66015625,-61.03515625,-78.125,0.0,1722283802.5975432
-44.921875,-66.89453125,-58.59375,-85.9375,0.0,1722283802.6013722
-68.359375,-81.54296875,-69.82421875,-104.00390625,0.0,1722283802.605201
-85.9375,-89.35546875,-77.63671875,-121.58203125,0.0,1722283802.60903
-63.4765625,-77.1484375,-62.01171875,-96.6796875,0.0,1722283802.612859
-82.51953125,-74.70703125,-53.7109375,-102.05078125,0.0,1722283802.616688
-93.75,-76.66015625,-68.84765625,-119.62890625,0.0,1722283802.6214244
-78.61328125,-76.66015625,-66.40625,-107.91015625,0.0,1722283802.6252544
-83.0078125,-67.3828125,-53.7109375,-100.5859375,0.0,1722283802.629084
-80.56640625,-64.453125,-55.17578125,-102.05078125,0.0,1722283802.632914
-67.3828125,-58.59375,-50.29296875,-89.84375,0.0,1722283802.6367438
-52.24609375,-58.59375,-39.0625,-79.58984375,0.0,1722283802.6405737
-38.0859375,-53.22265625,-24.90234375,-75.1953125,0.0,1722283802.6444037
-39.0625,-47.36328125,-28.80859375,-86.9140625,0.0,1722283802.6482334
-44.921875,-52.24609375,-46.38671875,-83.49609375,0.0,1722283802.6520634
-43.9453125,-53.7109375,-45.41015625,-69.3359375,0.0,1722283802.655893
-45.41015625,-61.03515625,-50.29296875,-75.1953125,0.0,1722283802.659723
-59.5703125,-65.4296875,-54.6875,-74.21875,0.0,1722283802.663553
-59.5703125,-67.3828125,-44.43359375,-70.80078125,0.0,1722283802.6681817
-41.015625,-67.87109375,-44.43359375,-57.6171875,0.0,1722283802.6720123
-59.5703125,-71.77734375,-53.7109375,-63.4765625,0.0,1722283802.675843
-72.265625,-78.125,-50.78125,-80.56640625,0.0,1722283802.6796737
-57.12890625,-77.63671875,-46.38671875,-77.1484375,0.0,1722283802.6835043
-39.0625,-78.125,-48.828125,-74.21875,0.0,1722283802.6873348
-33.69140625,-79.1015625,-44.43359375,-68.84765625,0.0,1722283802.6911654
-64.94140625,-89.35546875,-60.546875,-102.5390625,0.0,1722283802.694996
-86.42578125,-93.26171875,-75.1953125,-125.9765625,0.0,1722283802.6988268
-70.80078125,-86.42578125,-69.82421875,-99.12109375,0.0,1722283802.7026575
-57.6171875,-84.47265625,-67.87109375,-79.1015625,0.0,1722283802.7064881
-66.89453125,-95.21484375,-74.21875,-94.7265625,0.0,1722283802.7103188
-57.6171875,-102.05078125,-70.80078125,-100.09765625,0.0,1722283802.7148578
-46.38671875,-90.33203125,-68.359375,-67.87109375,0.0,1722283802.7186892
-72.75390625,-97.65625,-79.58984375,-75.68359375,0.0,1722283802.7225206
-89.35546875,-109.86328125,-83.49609375,-93.75,0.0,1722283802.726352
-67.87109375,-106.4453125,-79.58984375,-67.3828125,0.0,1722283802.7301831
-40.52734375,-84.47265625,-68.359375,-54.19921875,0.0,1722283802.7340145
-62.98828125,-88.37890625,-90.33203125,-90.33203125,0.0,1722283802.737846
-81.0546875,-107.421875,-109.375,-124.51171875,0.0,1722283802.7416773
-68.84765625,-99.12109375,-95.21484375,-100.09765625,0.0,1722283802.7455087
-66.40625,-100.5859375,-89.35546875,-71.77734375,0.0,1722283802.74934
-84.9609375,-112.3046875,-96.6796875,-80.56640625,0.0,1722283802.7531712
-104.98046875,-120.1171875,-104.4921875,-82.51953125,0.0,1722283802.7570026
-102.5390625,-122.55859375,-102.5390625,-84.9609375,0.0,1722283802.761956
-93.26171875,-120.60546875,-101.5625,-109.86328125,0.0,1722283802.7657883
-81.0546875,-118.65234375,-104.98046875,-116.2109375,0.0,1722283802.769621
-77.1484375,-118.1640625,-104.4921875,-120.1171875,0.0,1722283802.7734532
-74.21875,-119.140625,-96.6796875,-120.1171875,0.0,1722283802.7772856
-59.08203125,-109.86328125,-90.33203125,-104.98046875,0.0,1722283802.7811182
-65.91796875,-116.2109375,-104.98046875,-114.74609375,0.0,1722283802.7849505
-76.171875,-126.953125,-107.421875,-118.65234375,0.0,1722283802.788783
-72.75390625,-118.65234375,-103.02734375,-114.2578125,0.0,1722283802.7926154
-75.68359375,-115.234375,-110.3515625,-109.86328125,0.0,1722283802.7964478
-110.3515625,-124.51171875,-118.1640625,-120.60546875,0.0,1722283802.8002803
-116.69921875,-124.51171875,-111.328125,-136.23046875,0.0,1722283802.8041127
-104.98046875,-120.60546875,-103.02734375,-119.62890625,0.0,1722283802.8090358
-111.328125,-116.69921875,-101.5625,-128.90625,0.0,1722283802.8128693
-112.79296875,-115.234375,-104.98046875,-135.7421875,0.0,1722283802.8167026
-103.515625,-112.79296875,-104.00390625,-110.3515625,0.0,1722283802.8205361
-100.09765625,-116.2109375,-103.515625,-100.09765625,0.0,1722283802.8243697
-109.86328125,-122.0703125,-100.5859375,-104.98046875,0.0,1722283802.8282032
-124.51171875,-125.48828125,-106.4453125,-118.65234375,0.0,1722283802.8320367
-120.1171875,-130.859375,-118.65234375,-120.1171875,0.0,1722283802.83587
-94.23828125,-116.2109375,-99.12109375,-92.28515625,0.0,1722283802.8397036
-110.3515625,-120.60546875,-95.21484375,-88.37890625,0.0,1722283802.843537
-132.8125,-135.7421875,-117.67578125,-104.98046875,0.0,1722283802.8473706
-119.62890625,-129.8828125,-111.328125,-104.4921875,0.0,1722283802.851204
-118.65234375,-137.20703125,-109.86328125,-110.83984375,0.0,1722283802.855994
-138.671875,-139.6484375,-114.2578125,-123.53515625,0.0,1722283802.8598285
-132.32421875,-124.0234375,-108.3984375,-116.69921875,0.0,1722283802.8636627
-112.79296875,-121.09375,-102.5390625,-99.609375,0.0,1722283802.8674972
-119.62890625,-131.34765625,-104.4921875,-109.86328125,0.0,1722283802.8713317
-127.44140625,-128.90625,-100.09765625,-106.4453125,0.0,1722283802.875166
-125.48828125,-123.046875,-93.75,-104.4921875,0.0,1722283802.8790004
-118.1640625,-123.53515625,-94.7265625,-111.81640625,0.0,1722283802.8828347
-110.83984375,-120.60546875,-99.609375,-91.796875,0.0,1722283802.8866692
-135.7421875,-134.27734375,-114.74609375,-117.67578125,0.0,1722283802.8905036
-157.2265625,-136.23046875,-114.2578125,-148.92578125,0.0,1722283802.894338
-122.0703125,-123.046875,-103.515625,-116.69921875,0.0,1722283802.8981724
-124.0234375,-120.1171875,-103.02734375,-116.69921875,0.0,1722283802.9029264
-148.4375,-131.34765625,-120.1171875,-134.27734375,0.0,1722283802.9067616
-132.32421875,-132.8125,-120.1171875,-109.375,0.0,1722283802.9105968
-139.16015625,-129.8828125,-107.91015625,-120.1171875,0.0,1722283802.914432
-152.83203125,-132.32421875,-113.28125,-142.08984375,0.0,1722283802.9182675
-139.6484375,-126.953125,-115.72265625,-145.99609375,0.0,1722283802.9221027
-124.0234375,-125.48828125,-117.1875,-162.109375,0.0,1722283802.925938
-116.2109375,-120.1171875,-106.4453125,-131.34765625,0.0,1722283802.929773
-122.0703125,-124.0234375,-111.328125,-127.44140625,0.0,1722283802.9336083
-147.94921875,-146.484375,-143.06640625,-160.64453125,0.0,1722283802.9374437
-136.71875,-148.92578125,-134.27734375,-140.13671875,0.0,1722283802.941279
-116.2109375,-145.01953125,-119.140625,-111.81640625,0.0,1722283802.9451141
-124.51171875,-146.484375,-125.48828125,-119.140625,0.0,1722283802.9498174
-127.44140625,-147.4609375,-126.46484375,-131.8359375,0.0,1722283802.9536533
-122.55859375,-146.484375,-119.62890625,-123.53515625,0.0,1722283802.9574895
-112.79296875,-142.08984375,-118.1640625,-119.140625,0.0,1722283802.9613254
-120.60546875,-142.08984375,-118.1640625,-123.53515625,0.0,1722283802.9651616
-109.375,-139.6484375,-113.76953125,-130.859375,0.0,1722283802.9689975
-106.93359375,-145.5078125,-114.74609375,-140.625,0.0,1722283802.9728336
-109.86328125,-144.04296875,-107.91015625,-124.0234375,0.0,1722283802.9766698
-117.1875,-147.94921875,-118.65234375,-135.25390625,0.0,1722283802.9805057
-130.859375,-158.203125,-131.8359375,-156.25,0.0,1722283802.9843419
-116.69921875,-147.4609375,-117.67578125,-129.39453125,0.0,1722283802.9881778
-102.05078125,-137.6953125,-105.46875,-112.79296875,0.0,1722283802.992014
-109.375,-146.484375,-116.69921875,-136.23046875,0.0,1722283802.9966714
-104.98046875,-142.08984375,-119.62890625,-143.5546875,0.0,1722283803.000508
-99.609375,-135.7421875,-112.3046875,-132.32421875,0.0,1722283803.004345
-117.1875,-141.6015625,-124.51171875,-132.8125,0.0,1722283803.0081818
-132.8125,-144.53125,-135.25390625,-141.11328125,0.0,1722283803.0120187
-129.8828125,-144.53125,-125.0,-136.23046875,0.0,1722283803.0158553
-118.1640625,-137.6953125,-113.28125,-126.46484375,0.0,1722283803.0196922
-111.81640625,-143.06640625,-119.62890625,-119.62890625,0.0,1722283803.023529
-123.046875,-151.85546875,-125.9765625,-131.8359375,0.0,1722283803.0273657
-118.1640625,-135.25390625,-112.3046875,-134.27734375,0.0,1722283803.0312026
-110.3515625,-130.37109375,-107.421875,-120.1171875,0.0,1722283803.0350394
-125.48828125,-141.11328125,-116.69921875,-119.62890625,0.0,1722283803.0388763
-123.046875,-140.625,-119.140625,-129.8828125,0.0,1722283803.0434341
-121.09375,-131.34765625,-104.00390625,-131.34765625,0.0,1722283803.0472717
-118.65234375,-142.08984375,-105.95703125,-123.53515625,0.0,1722283803.051109
-114.2578125,-150.87890625,-120.60546875,-121.58203125,0.0,1722283803.0549467
-125.0,-142.08984375,-116.69921875,-140.13671875,0.0,1722283803.058784
-127.44140625,-128.41796875,-108.3984375,-145.99609375,0.0,1722283803.0626216
-122.55859375,-121.58203125,-106.4453125,-132.8125,0.0,1722283803.066459
-138.18359375,-136.71875,-127.9296875,-163.57421875,0.0,1722283803.0702965
-143.06640625,-141.11328125,-133.30078125,-180.6640625,0.0,1722283803.0741339
-128.90625,-130.37109375,-113.76953125,-153.3203125,0.0,1722283803.0779715
-133.30078125,-128.41796875,-120.60546875,-146.97265625,0.0,1722283803.0818088
-131.8359375,-143.5546875,-127.9296875,-133.7890625,0.0,1722283803.0856464
-123.046875,-149.90234375,-125.0,-117.67578125,0.0,1722283803.0901828
-112.3046875,-135.25390625,-121.58203125,-116.2109375,0.0,1722283803.0940208
-122.0703125,-138.671875,-117.1875,-129.39453125,0.0,1722283803.097859
-140.13671875,-145.5078125,-120.1171875,-135.7421875,0.0,1722283803.1016972
-134.27734375,-138.18359375,-125.0,-133.7890625,0.0,1722283803.1055353
-108.3984375,-133.30078125,-103.02734375,-120.60546875,0.0,1722283803.1093733
-125.48828125,-139.6484375,-102.05078125,-120.1171875,0.0,1722283803.1132114
-156.25,-146.97265625,-121.58203125,-140.13671875,0.0,1722283803.1170495
-133.30078125,-145.01953125,-114.74609375,-137.20703125,0.0,1722283803.1208875
-136.23046875,-148.92578125,-115.72265625,-142.578125,0.0,1722283803.1247256
-164.0625,-150.87890625,-122.55859375,-150.87890625,0.0,1722283803.1285636
-162.109375,-150.390625,-125.9765625,-155.76171875,0.0,1722283803.1324017
-146.97265625,-145.99609375,-119.140625,-147.4609375,0.0,1722283803.137279
-146.484375,-150.390625,-115.234375,-151.85546875,0.0,1722283803.141118
-151.3671875,-154.296875,-123.53515625,-167.96875,0.0,1722283803.144957
-159.66796875,-149.90234375,-129.39453125,-170.41015625,0.0,1722283803.148796
-159.66796875,-153.80859375,-121.58203125,-152.83203125,0.0,1722283803.152635
-140.625,-154.78515625,-116.69921875,-147.4609375,0.0,1722283803.156474
-137.6953125,-157.71484375,-128.41796875,-178.7109375,0.0,1722283803.1603131
-160.64453125,-160.15625,-125.48828125,-193.84765625,0.0,1722283803.1641521
-165.0390625,-158.203125,-117.67578125,-199.70703125,0.0,1722283803.1679912
-165.52734375,-165.0390625,-130.37109375,-203.61328125,0.0,1722283803.1718302
-182.6171875,-174.8046875,-138.671875,-208.49609375,0.0,1722283803.1756692
-190.91796875,-168.9453125,-135.7421875,-208.984375,0.0,1722283803.1795082
-180.17578125,-155.2734375,-129.8828125,-193.359375,0.0,1722283803.1843364
-174.8046875,-159.66796875,-126.46484375,-193.359375,0.0,1722283803.1881764
-200.68359375,-174.31640625,-136.23046875,-212.40234375,0.0,1722283803.1920161
-186.5234375,-166.9921875,-134.27734375,-188.96484375,0.0,1722283803.195856
-160.64453125,-162.59765625,-122.0703125,-174.8046875,0.0,1722283803.199696
-172.8515625,-164.55078125,-115.72265625,-179.6875,0.0,1722283803.2035358
-179.19921875,-164.55078125,-123.046875,-178.22265625,0.0,1722283803.2073758
-188.4765625,-162.59765625,-129.39453125,-193.84765625,0.0,1722283803.2112155
-173.33984375,-148.4375,-122.0703125,-170.41015625,0.0,1722283803.2150555
-166.015625,-155.2734375,-125.0,-161.1328125,0.0,1722283803.2188954
-186.03515625,-171.38671875,-139.6484375,-192.3828125,0.0,1722283803.2227352
-171.38671875,-163.57421875,-122.55859375,-166.50390625,0.0,1722283803.2265751
-161.62109375,-152.34375,-118.65234375,-169.43359375,0.0,1722283803.2313142
-164.55078125,-153.80859375,-130.37109375,-193.359375,0.0,1722283803.2351549
-155.76171875,-154.296875,-122.0703125,-187.01171875,0.0,1722283803.2389956
-153.3203125,-150.87890625,-112.79296875,-177.734375,0.0,1722283803.2428362
-159.1796875,-147.94921875,-107.91015625,-172.36328125,0.0,1722283803.246677
-155.76171875,-138.18359375,-105.46875,-158.69140625,0.0,1722283803.2505176
-148.4375,-140.625,-114.74609375,-162.59765625,0.0,1722283803.2543583
-128.90625,-143.06640625,-112.79296875,-158.203125,0.0,1722283803.258199
-116.2109375,-139.16015625,-99.12109375,-133.30078125,0.0,1722283803.2620394
-142.578125,-149.4140625,-111.81640625,-152.83203125,0.0,1722283803.26588
-151.85546875,-150.87890625,-117.67578125,-176.7578125,0.0,1722283803.2697208
-131.8359375,-132.8125,-106.4453125,-174.31640625,0.0,1722283803.2735615
-116.69921875,-127.9296875,-110.3515625,-142.08984375,0.0,1722283803.2782807
-123.53515625,-133.7890625,-122.0703125,-129.8828125,0.0,1722283803.2821221
-110.3515625,-128.90625,-116.69921875,-128.41796875,0.0,1722283803.2859635
-110.3515625,-125.0,-113.76953125,-137.20703125,0.0,1722283803.289805
-121.09375,-123.046875,-107.421875,-139.16015625,0.0,1722283803.2936463
-103.515625,-119.140625,-96.6796875,-122.55859375,0.0,1722283803.2974877
-110.3515625,-122.0703125,-103.02734375,-130.37109375,0.0,1722283803.3013291
-87.890625,-115.72265625,-94.7265625,-116.2109375,0.0,1722283803.3051705
-84.47265625,-122.55859375,-95.703125,-115.72265625,0.0,1722283803.309012
-117.1875,-137.20703125,-121.58203125,-138.671875,0.0,1722283803.3128533
-109.86328125,-131.8359375,-110.3515625,-118.1640625,0.0,1722283803.316695
-95.21484375,-132.8125,-104.4921875,-104.4921875,0.0,1722283803.3205364
-94.7265625,-135.7421875,-114.74609375,-115.234375,0.0,1722283803.3251626
-96.19140625,-127.44140625,-106.4453125,-125.9765625,0.0,1722283803.3290048
-92.28515625,-113.28125,-94.7265625,-114.74609375,0.0,1722283803.3328469
-107.91015625,-116.69921875,-104.4921875,-125.9765625,0.0,1722283803.336689
-111.328125,-122.55859375,-106.93359375,-143.5546875,0.0,1722283803.340531
-102.5390625,-119.62890625,-96.19140625,-132.8125,0.0,1722283803.344373
-103.02734375,-121.58203125,-91.796875,-121.09375,0.0,1722283803.348215
-101.07421875,-127.9296875,-96.6796875,-124.51171875,0.0,1722283803.3520572
-117.67578125,-144.04296875,-119.62890625,-144.04296875,0.0,1722283803.3558993
-113.76953125,-136.23046875,-120.60546875,-133.7890625,0.0,1722283803.3597414
-99.609375,-122.55859375,-107.91015625,-114.2578125,0.0,1722283803.3635836
-101.5625,-130.859375,-108.88671875,-120.60546875,0.0,1722283803.3674254
-104.4921875,-140.13671875,-117.1875,-119.62890625,0.0,1722283803.3720858
-100.09765625,-136.23046875,-119.62890625,-125.0,0.0,1722283803.3759286
-97.16796875,-132.32421875,-107.91015625,-136.23046875,0.0,1722283803.3797712
-112.3046875,-138.671875,-105.95703125,-149.4140625,0.0,1722283803.383614
-115.234375,-142.08984375,-112.3046875,-141.11328125,0.0,1722283803.387457
-105.46875,-136.71875,-109.375,-117.67578125,0.0,1722283803.3912995
-95.21484375,-121.58203125,-101.07421875,-113.28125,0.0,1722283803.3951423
-107.421875,-132.32421875,-107.91015625,-127.44140625,0.0,1722283803.3989851
-126.46484375,-158.203125,-124.51171875,-150.390625,0.0,1722283803.402828
-119.62890625,-152.83203125,-117.1875,-148.4375,0.0,1722283803.4066706
-119.140625,-147.94921875,-110.83984375,-150.87890625,0.0,1722283803.4105134
-115.72265625,-145.99609375,-111.81640625,-147.94921875,0.0,1722283803.4143562
-102.5390625,-140.13671875,-115.72265625,-142.08984375,0.0,1722283803.4188607
-87.40234375,-136.71875,-109.86328125,-120.60546875,0.0,1722283803.422704
-91.796875,-139.16015625,-111.328125,-124.51171875,0.0,1722283803.4265473
-102.05078125,-144.53125,-122.0703125,-146.97265625,0.0,1722283803.4303908
-94.23828125,-135.25390625,-118.1640625,-127.44140625,0.0,1722283803.4342341
-94.7265625,-128.90625,-107.91015625,-112.79296875,0.0,1722283803.4380774
-94.7265625,-137.6953125,-103.02734375,-124.51171875,0.0,1722283803.4419208
-108.3984375,-146.97265625,-113.28125,-144.53125,0.0,1722283803.445764
-111.81640625,-145.99609375,-120.60546875,-160.15625,0.0,1722283803.4496074
-99.609375,-140.13671875,-115.72265625,-153.3203125,0.0,1722283803.4534507
-106.4453125,-143.06640625,-118.1640625,-145.99609375,0.0,1722283803.457294
-119.140625,-149.4140625,-117.1875,-159.1796875,0.0,1722283803.4611373
-122.0703125,-144.53125,-105.46875,-151.3671875,0.0,1722283803.4656184
-110.83984375,-138.671875,-104.98046875,-132.8125,0.0,1722283803.4694622
-107.91015625,-142.08984375,-111.328125,-135.7421875,0.0,1722283803.473306
-104.00390625,-143.5546875,-110.83984375,-139.6484375,0.0,1722283803.4771497
-105.95703125,-136.23046875,-102.05078125,-137.6953125,0.0,1722283803.4809937
-90.8203125,-122.0703125,-88.8671875,-129.8828125,0.0,1722283803.4848375
-88.8671875,-126.953125,-99.12109375,-130.859375,0.0,1722283803.4886813
-109.86328125,-142.578125,-117.67578125,-144.04296875,0.0,1722283803.492525
-107.421875,-133.30078125,-105.46875,-119.140625,0.0,1722283803.4963691
-101.07421875,-124.51171875,-98.14453125,-110.83984375,0.0,1722283803.500213
-99.12109375,-136.23046875,-106.4453125,-125.48828125,0.0,1722283803.5040567
-99.609375,-136.71875,-104.98046875,-117.1875,0.0,1722283803.5079005
-93.26171875,-126.953125,-101.5625,-126.46484375,0.0,1722283803.512709
-82.03125,-123.046875,-104.4921875,-115.234375,0.0,1722283803.5165536
-80.078125,-125.0,-104.00390625,-98.14453125,0.0,1722283803.5203981
-78.61328125,-122.0703125,-99.12109375,-114.2578125,0.0,1722283803.5242429
-63.96484375,-115.234375,-90.33203125,-123.53515625,0.0,1722283803.5280876
-64.453125,-115.234375,-83.49609375,-118.1640625,0.0,1722283803.531932
-77.1484375,-118.65234375,-86.9140625,-121.09375,0.0,1722283803.5357769
-74.70703125,-123.53515625,-94.23828125,-119.62890625,0.0,1722283803.5396214
-66.40625,-114.74609375,-86.42578125,-98.14453125,0.0,1722283803.543466
-89.35546875,-103.02734375,-86.42578125,-129.39453125,0.0,1722283803.5473106
-113.28125,-114.74609375,-105.46875,-170.41015625,0.0,1722283803.5511553
-92.28515625,-111.328125,-100.09765625,-147.4609375,0.0,1722283803.5549998
-66.40625,-96.6796875,-88.8671875,-113.28125,0.0,1722283803.5597694
-75.68359375,-100.09765625,-89.84375,-112.3046875,0.0,1722283803.5636148
-90.33203125,-103.02734375,-94.23828125,-128.90625,0.0,1722283803.56746
-76.171875,-101.07421875,-96.6796875,-125.48828125,0.0,1722283803.5713055
-60.546875,-104.4921875,-85.9375,-115.72265625,0.0,1722283803.575151
-59.08203125,-105.46875,-79.58984375,-118.1640625,0.0,1722283803.5789962
-72.75390625,-115.234375,-90.33203125,-126.953125,0.0,1722283803.5828416
-89.35546875,-120.60546875,-96.19140625,-123.53515625,0.0,1722283803.586687
-75.68359375,-107.421875,-79.1015625,-104.4921875,0.0,1722283803.5905323
-81.0546875,-119.62890625,-83.0078125,-105.95703125,0.0,1722283803.5943778
-91.796875,-128.90625,-97.65625,-129.8828125,0.0,1722283803.5982232
-75.68359375,-116.2109375,-89.35546875,-114.74609375,0.0,1722283803.6020684
-76.66015625,-125.9765625,-90.8203125,-104.98046875,0.0,1722283803.6067407
-72.75390625,-127.9296875,-97.65625,-113.28125,0.0,1722283803.6105866
-69.3359375,-111.81640625,-89.35546875,-105.95703125,0.0,1722283803.6144328
-76.171875,-109.375,-83.49609375,-101.5625,0.0,1722283803.6182787
-74.21875,-113.76953125,-94.23828125,-103.02734375,0.0,1722283803.622125
-70.80078125,-116.69921875,-90.8203125,-100.5859375,0.0,1722283803.6259708
-80.078125,-123.046875,-92.28515625,-116.2109375,0.0,1722283803.629817
-83.0078125,-119.140625,-94.23828125,-134.27734375,0.0,1722283803.633663
-81.0546875,-115.72265625,-92.7734375,-132.32421875,0.0,1722283803.6375089
-89.35546875,-128.41796875,-103.02734375,-133.30078125,0.0,1722283803.641355
-93.26171875,-124.51171875,-99.609375,-130.859375,0.0,1722283803.645201
-87.40234375,-113.28125,-89.84375,-108.88671875,0.0,1722283803.6490471
-85.9375,-123.53515625,-97.16796875,-108.88671875,0.0,1722283803.6536553
-96.6796875,-136.71875,-111.328125,-142.08984375,0.0,1722283803.657502
-97.65625,-127.44140625,-108.3984375,-144.04296875,0.0,1722283803.6613486
-98.6328125,-117.1875,-89.84375,-127.9296875,0.0,1722283803.6651952
-97.65625,-119.62890625,-84.47265625,-127.44140625,0.0,1722283803.6690419
-89.35546875,-124.0234375,-92.7734375,-133.7890625,0.0,1722283803.6728885
-99.12109375,-131.8359375,-98.6328125,-134.27734375,0.0,1722283803.6767352
-95.703125,-117.67578125,-83.0078125,-125.0,0.0,1722283803.6805818
-90.8203125,-115.234375,-89.35546875,-134.765625,0.0,1722283803.6844285
-108.3984375,-135.25390625,-115.72265625,-152.34375,0.0,1722283803.688275
-100.09765625,-131.8359375,-104.4921875,-141.11328125,0.0,1722283803.6921217
-92.7734375,-129.8828125,-98.14453125,-135.25390625,0.0,1722283803.6959684
-110.83984375,-133.30078125,-106.4453125,-130.859375,0.0,1722283803.7005265
-109.86328125,-130.37109375,-112.3046875,-126.953125,0.0,1722283803.7043736
-101.07421875,-126.46484375,-106.93359375,-133.30078125,0.0,1722283803.708221
-110.83984375,-131.34765625,-107.91015625,-148.4375,0.0,1722283803.712068
-111.328125,-128.90625,-107.421875,-147.4609375,0.0,1722283803.7159152
-92.28515625,-118.1640625,-98.14453125,-127.44140625,0.0,1722283803.7197626
-84.47265625,-117.67578125,-99.609375,-139.6484375,0.0,1722283803.7236097
-82.51953125,-116.69921875,-96.19140625,-131.8359375,0.0,1722283803.7274568
-108.3984375,-128.41796875,-104.4921875,-154.78515625,0.0,1722283803.7313042
-109.86328125,-126.46484375,-108.88671875,-155.76171875,0.0,1722283803.7351513
-89.84375,-115.234375,-100.5859375,-140.625,0.0,1722283803.7389987
-87.40234375,-109.375,-103.515625,-158.203125,0.0,1722283803.7428458
-71.77734375,-107.91015625,-110.3515625,-136.71875,0.0,1722283803.7473524
-77.1484375,-116.2109375,-98.6328125,-114.2578125,0.0,1722283803.7512002
-101.5625,-118.1640625,-85.44921875,-120.1171875,0.0,1722283803.7550478
-107.421875,-119.140625,-90.33203125,-133.7890625,0.0,1722283803.7588956
-119.140625,-125.48828125,-88.37890625,-135.7421875,0.0,1722283803.7627432
-136.71875,-130.37109375,-82.03125,-150.390625,0.0,1722283803.766591
-115.234375,-123.53515625,-74.21875,-137.20703125,0.0,1722283803.7704387
-113.28125,-127.9296875,-74.21875,-140.13671875,0.0,1722283803.7742865
-127.9296875,-144.53125,-89.84375,-171.38671875,0.0,1722283803.778134
-121.09375,-136.23046875,-78.61328125,-154.78515625,0.0,1722283803.781982
-132.32421875,-130.37109375,-77.63671875,-147.4609375,0.0,1722283803.7858295
-125.9765625,-128.90625,-85.44921875,-138.18359375,0.0,1722283803.7896774
-107.91015625,-125.9765625,-84.9609375,-139.16015625,0.0,1722283803.794157
-92.7734375,-118.1640625,-80.078125,-124.0234375,0.0,1722283803.798005
-101.07421875,-113.28125,-78.125,-106.4453125,0.0,1722283803.8018534
-115.234375,-122.0703125,-90.8203125,-116.2109375,0.0,1722283803.8057015
-100.09765625,-119.62890625,-93.26171875,-115.234375,0.0,1722283803.8095498
-93.26171875,-115.234375,-87.890625,-120.1171875,0.0,1722283803.8133981
-94.23828125,-113.76953125,-79.58984375,-113.28125,0.0,1722283803.8172462
-114.74609375,-119.62890625,-87.40234375,-121.09375,0.0,1722283803.8210945
-112.3046875,-125.48828125,-99.609375,-132.32421875,0.0,1722283803.8249426
-87.890625,-113.76953125,-85.9375,-122.55859375,0.0,1722283803.828791
-99.609375,-104.00390625,-75.68359375,-132.8125,0.0,1722283803.832639
-109.86328125,-112.79296875,-85.9375,-132.32421875,0.0,1722283803.8364873
-94.23828125,-115.234375,-88.8671875,-129.39453125,0.0,1722283803.8408678
-88.37890625,-107.91015625,-84.47265625,-121.58203125,0.0,1722283803.8447165
-105.95703125,-114.2578125,-94.7265625,-117.1875,0.0,1722283803.848565
-107.421875,-118.65234375,-97.16796875,-117.1875,0.0,1722283803.8524137
-94.23828125,-108.88671875,-84.47265625,-117.1875,0.0,1722283803.8562622
-75.68359375,-96.19140625,-71.77734375,-112.79296875,0.0,1722283803.860111
-89.35546875,-101.5625,-80.56640625,-121.58203125,0.0,1722283803.8639596
-110.3515625,-112.79296875,-94.7265625,-139.16015625,0.0,1722283803.867808
-92.28515625,-107.91015625,-87.890625,-110.3515625,0.0,1722283803.8716567
-76.171875,-98.6328125,-73.2421875,-84.47265625,0.0,1722283803.8755054
-97.16796875,-111.81640625,-78.61328125,-111.81640625,0.0,1722283803.879354
-105.46875,-115.72265625,-86.9140625,-111.81640625,0.0,1722283803.8832026
-88.37890625,-112.3046875,-83.984375,-92.7734375,0.0,1722283803.887934
-84.9609375,-118.65234375,-88.8671875,-113.28125,0.0,1722283803.8917832
-87.890625,-112.3046875,-91.30859375,-122.55859375,0.0,1722283803.8956325
-105.95703125,-110.83984375,-94.23828125,-102.5390625,0.0,1722283803.8994818
-108.88671875,-117.1875,-100.5859375,-101.5625,0.0,1722283803.903331
-97.16796875,-116.2109375,-95.703125,-109.86328125,0.0,1722283803.9071803
-95.21484375,-115.234375,-92.7734375,-110.83984375,0.0,1722283803.9110296
-97.65625,-110.83984375,-96.6796875,-120.60546875,0.0,1722283803.9148788
-91.796875,-109.86328125,-98.14453125,-144.53125,0.0,1722283803.918728
-84.47265625,-108.3984375,-97.65625,-146.484375,0.0,1722283803.9225774
-116.2109375,-116.69921875,-105.95703125,-145.99609375,0.0,1722283803.9264266
-127.9296875,-117.1875,-102.05078125,-154.78515625,0.0,1722283803.930276
-116.2109375,-108.3984375,-100.09765625,-149.4140625,0.0,1722283803.934922
-104.98046875,-111.328125,-100.5859375,-130.859375,0.0,1722283803.938772
-100.5859375,-119.62890625,-102.05078125,-128.41796875,0.0,1722283803.942622
-108.3984375,-119.62890625,-99.609375,-128.41796875,0.0,1722283803.9464717
-105.46875,-113.28125,-92.28515625,-118.65234375,0.0,1722283803.9503217
-96.19140625,-110.83984375,-86.9140625,-111.328125,0.0,1722283803.9541714
-98.14453125,-117.1875,-95.703125,-104.98046875,0.0,1722283803.9580214
-104.98046875,-121.09375,-103.515625,-103.02734375,0.0,1722283803.9618711
-85.9375,-106.4453125,-79.58984375,-81.54296875,0.0,1722283803.9657211
-85.9375,-110.3515625,-82.51953125,-104.4921875,0.0,1722283803.969571
-103.515625,-126.953125,-104.00390625,-138.18359375,0.0,1722283803.9734209
-88.37890625,-115.72265625,-86.42578125,-123.046875,0.0,1722283803.9772708
-91.796875,-112.79296875,-80.56640625,-124.51171875,0.0,1722283803.9818907
-107.91015625,-118.1640625,-90.8203125,-120.60546875,0.0,1722283803.9857411
-106.93359375,-122.0703125,-95.703125,-127.9296875,0.0,1722283803.9895916
-89.84375,-115.234375,-91.30859375,-118.65234375,0.0,1722283803.993442
-79.58984375,-105.46875,-84.47265625,-105.95703125,0.0,1722283803.9972925
-94.7265625,-112.79296875,-86.42578125,-107.91015625,0.0,1722283804.001143
-99.609375,-119.140625,-89.84375,-109.375,0.0,1722283804.0049934
-96.19140625,-114.74609375,-88.8671875,-113.28125,0.0,1722283804.008844
-92.7734375,-115.72265625,-88.8671875,-132.8125,0.0,1722283804.0126944
-105.46875,-129.8828125,-106.93359375,-151.3671875,0.0,1722283804.0165448
-112.3046875,-126.953125,-103.515625,-138.18359375,0.0,1722283804.0203953
-96.19140625,-112.3046875,-85.44921875,-120.60546875,0.0,1722283804.0242457
-102.05078125,-110.3515625,-86.9140625,-117.67578125,0.0,1722283804.028823
-113.76953125,-117.67578125,-94.23828125,-131.8359375,0.0,1722283804.0326738
-103.02734375,-114.74609375,-94.23828125,-124.51171875,0.0,1722283804.036525
-93.75,-113.76953125,-89.35546875,-101.07421875,0.0,1722283804.040376
-103.02734375,-118.65234375,-88.37890625,-95.703125,0.0,1722283804.044227
-105.46875,-116.69921875,-83.0078125,-110.3515625,0.0,1722283804.0480778
-109.86328125,-117.1875,-81.0546875,-128.41796875,0.0,1722283804.0519288
-100.09765625,-106.93359375,-70.80078125,-117.1875,0.0,1722283804.05578
-104.98046875,-114.74609375,-76.66015625,-104.4921875,0.0,1722283804.0596309
-124.51171875,-124.0234375,-91.30859375,-113.76953125,0.0,1722283804.0634818
-98.14453125,-103.515625,-76.66015625,-108.3984375,0.0,1722283804.0673327
-100.5859375,-107.421875,-78.125,-109.375,0.0,1722283804.0711837
-111.328125,-109.86328125,-84.47265625,-97.65625,0.0,1722283804.0756867
-109.86328125,-105.95703125,-83.49609375,-102.05078125,0.0,1722283804.079538
-107.421875,-107.91015625,-83.49609375,-105.46875,0.0,1722283804.0833895
-102.5390625,-108.88671875,-88.37890625,-90.33203125,0.0,1722283804.087241
-108.3984375,-110.3515625,-89.35546875,-116.2109375,0.0,1722283804.0910926
-111.328125,-111.328125,-80.56640625,-116.2109375,0.0,1722283804.094944
-114.74609375,-111.328125,-78.61328125,-104.98046875,0.0,1722283804.0987954
-109.86328125,-108.3984375,-79.1015625,-108.88671875,0.0,1722283804.1026468
-122.55859375,-117.67578125,-93.26171875,-127.9296875,0.0,1722283804.1064982
-127.9296875,-116.2109375,-97.16796875,-132.8125,0.0,1722283804.11035
-117.1875,-109.375,-85.44921875,-128.90625,0.0,1722283804.1142013
-116.2109375,-111.328125,-82.03125,-127.9296875,0.0,1722283804.1180527
-118.1640625,-112.79296875,-84.9609375,-123.53515625,0.0,1722283804.1225133
-120.60546875,-109.375,-83.0078125,-121.58203125,0.0,1722283804.1263652
-112.79296875,-103.515625,-76.171875,-116.69921875,0.0,1722283804.130217
-118.1640625,-107.91015625,-79.58984375,-104.4921875,0.0,1722283804.134069
-124.0234375,-105.46875,-83.984375,-101.5625,0.0,1722283804.1379209
-117.1875,-100.09765625,-80.56640625,-96.6796875,0.0,1722283804.1417727
-99.12109375,-92.28515625,-67.3828125,-66.40625,0.0,1722283804.1456246
-101.07421875,-94.7265625,-76.171875,-69.82421875,0.0,1722283804.1494765
-137.6953125,-108.3984375,-96.19140625,-94.7265625,0.0,1722283804.1533284
-109.375,-97.16796875,-86.9140625,-88.37890625,0.0,1722283804.1571803
-94.7265625,-95.703125,-71.77734375,-83.0078125,0.0,1722283804.1610324
-139.6484375,-105.95703125,-64.94140625,-93.75,0.0,1722283804.1648843
-154.78515625,-105.46875,-66.40625,-126.46484375,0.0,1722283804.169289
-146.97265625,-105.95703125,-65.4296875,-142.08984375,0.0,1722283804.1731415
-132.32421875,-105.46875,-68.84765625,-134.27734375,0.0,1722283804.1769938
-133.7890625,-108.88671875,-71.77734375,-126.46484375,0.0,1722283804.180846
-136.71875,-117.67578125,-70.80078125,-128.90625,0.0,1722283804.1846983
-125.0,-110.3515625,-63.4765625,-110.83984375,0.0,1722283804.1885507
-125.9765625,-104.98046875,-56.640625,-91.796875,0.0,1722283804.192403
-136.23046875,-111.81640625,-68.359375,-111.328125,0.0,1722283804.1962552
-133.30078125,-115.72265625,-82.51953125,-115.72265625,0.0,1722283804.2001076
-110.3515625,-107.421875,-75.1953125,-85.9375,0.0,1722283804.20396
-109.375,-107.91015625,-64.453125,-72.75390625,0.0,1722283804.2078123
-117.67578125,-108.3984375,-70.3125,-91.796875,0.0,1722283804.2116644
-111.328125,-98.14453125,-73.73046875,-109.375,0.0,1722283804.2160141
-105.46875,-99.12109375,-60.05859375,-123.53515625,0.0,1722283804.2198668
-103.02734375,-99.609375,-59.08203125,-131.8359375,0.0,1722283804.2237194
-116.69921875,-99.609375,-69.3359375,-130.859375,0.0,1722283804.227572
-114.74609375,-96.6796875,-58.59375,-113.76953125,0.0,1722283804.2314248
-93.75,-85.9375,-50.29296875,-80.078125,0.0,1722283804.2352774
-94.23828125,-90.33203125,-62.5,-82.51953125,0.0,1722283804.23913
-109.375,-102.05078125,-75.68359375,-102.5390625,0.0,1722283804.2429826
-119.140625,-102.05078125,-78.125,-116.2109375,0.0,1722283804.2468355
-100.5859375,-85.44921875,-66.89453125,-109.375,0.0,1722283804.250688
-105.95703125,-95.21484375,-64.94140625,-106.4453125,0.0,1722283804.2545407
-106.4453125,-104.4921875,-77.1484375,-115.234375,0.0,1722283804.2583933
-79.58984375,-83.49609375,-73.73046875,-99.12109375,0.0,1722283804.2630692
-82.51953125,-85.9375,-64.94140625,-88.8671875,0.0,1722283804.2669225
-97.65625,-100.09765625,-72.75390625,-99.609375,0.0,1722283804.2707756
-100.5859375,-96.6796875,-73.73046875,-104.00390625,0.0,1722283804.2746289
-97.65625,-85.44921875,-63.4765625,-97.65625,0.0,1722283804.2784822
-76.171875,-82.03125,-61.03515625,-78.61328125,0.0,1722283804.2823353
-84.47265625,-95.21484375,-69.3359375,-90.8203125,0.0,1722283804.2861886
-114.74609375,-103.515625,-82.51953125,-124.51171875,0.0,1722283804.290042
-111.81640625,-100.09765625,-75.1953125,-118.1640625,0.0,1722283804.293895
-101.07421875,-96.19140625,-72.265625,-104.00390625,0.0,1722283804.2977483
-94.23828125,-103.02734375,-82.51953125,-111.328125,0.0,1722283804.3016016
-78.61328125,-99.12109375,-69.82421875,-101.5625,0.0,1722283804.3054547
-67.87109375,-88.8671875,-59.08203125,-97.16796875,0.0,1722283804.3100889
-86.9140625,-83.984375,-73.2421875,-124.0234375,0.0,1722283804.3139424
-104.00390625,-93.26171875,-84.47265625,-136.23046875,0.0,1722283804.3177962
-98.14453125,-101.5625,-82.51953125,-111.328125,0.0,1722283804.32165
-75.68359375,-91.796875,-73.73046875,-104.4921875,0.0,1722283804.3255038
-72.75390625,-89.35546875,-69.82421875,-123.046875,0.0,1722283804.3293576
-93.26171875,-102.05078125,-80.56640625,-143.06640625,0.0,1722283804.3332114
-95.703125,-104.98046875,-80.078125,-135.7421875,0.0,1722283804.3370652
-76.171875,-81.54296875,-57.6171875,-101.5625,0.0,1722283804.340919
-75.1953125,-87.40234375,-62.98828125,-104.00390625,0.0,1722283804.3447728
-100.5859375,-112.79296875,-78.61328125,-98.14453125,0.0,1722283804.3486266
-84.47265625,-102.5390625,-68.359375,-92.28515625,0.0,1722283804.3524804
-72.265625,-96.6796875,-68.359375,-119.62890625,0.0,1722283804.3570242
-83.984375,-104.4921875,-72.75390625,-104.00390625,0.0,1722283804.3608785
-93.26171875,-103.02734375,-77.1484375,-97.16796875,0.0,1722283804.3647327
-92.28515625,-98.6328125,-72.265625,-102.5390625,0.0,1722283804.368587
-76.171875,-97.65625,-67.3828125,-93.75,0.0,1722283804.372441
-66.40625,-89.84375,-70.80078125,-104.00390625,0.0,1722283804.3762953
-81.54296875,-89.35546875,-73.2421875,-111.81640625,0.0,1722283804.3801496
-77.1484375,-92.7734375,-68.84765625,-108.88671875,0.0,1722283804.3840039
-74.21875,-96.6796875,-65.91796875,-103.02734375,0.0,1722283804.3878582
-94.23828125,-115.72265625,-82.03125,-98.6328125,0.0,1722283804.3917124
-99.609375,-114.2578125,-76.66015625,-108.88671875,0.0,1722283804.3955667
-84.9609375,-100.09765625,-69.3359375,-106.93359375,0.0,1722283804.399421
-71.77734375,-103.02734375,-74.21875,-91.796875,0.0,1722283804.4039237
-74.21875,-111.328125,-78.125,-82.51953125,0.0,1722283804.4077785
-82.51953125,-108.88671875,-79.1015625,-87.890625,0.0,1722283804.4116333
-71.77734375,-101.5625,-67.3828125,-94.7265625,0.0,1722283804.4154878
-62.98828125,-93.26171875,-63.96484375,-94.23828125,0.0,1722283804.4193425
-62.01171875,-86.42578125,-64.94140625,-106.4453125,0.0,1722283804.4231973
-63.96484375,-87.890625,-64.453125,-117.67578125,0.0,1722283804.427052
-61.5234375,-78.125,-43.9453125,-84.47265625,0.0,1722283804.4309068
-54.6875,-78.125,-46.875,-73.73046875,0.0,1722283804.4347615
-64.94140625,-97.65625,-74.21875,-85.44921875,0.0,1722283804.438616
-60.05859375,-95.703125,-62.5,-84.47265625,0.0,1722283804.4424708
-54.6875,-89.84375,-59.08203125,-93.26171875,0.0,1722283804.4463255
-68.359375,-92.28515625,-71.77734375,-100.5859375,0.0,1722283804.4507787
-79.1015625,-100.5859375,-77.1484375,-109.86328125,0.0,1722283804.454634
-71.2890625,-96.19140625,-80.56640625,-123.046875,0.0,1722283804.458489
-58.59375,-87.890625,-83.0078125,-119.140625,0.0,1722283804.4623442
-63.4765625,-96.6796875,-87.40234375,-126.953125,0.0,1722283804.4661992
-66.89453125,-100.5859375,-90.33203125,-126.46484375,0.0,1722283804.4700544
-71.2890625,-99.609375,-78.61328125,-117.1875,0.0,1722283804.4739094
-83.0078125,-102.5390625,-74.21875,-116.2109375,0.0,1722283804.4777646
-104.98046875,-116.2109375,-94.7265625,-128.90625,0.0,1722283804.4816196
-104.98046875,-121.58203125,-97.16796875,-132.8125,0.0,1722283804.4854748
-81.54296875,-108.88671875,-86.42578125,-106.93359375,0.0,1722283804.48933
-78.61328125,-104.00390625,-90.33203125,-115.72265625,0.0,1722283804.493185
-89.35546875,-113.28125,-96.19140625,-152.83203125,0.0,1722283804.4975932
-96.19140625,-116.2109375,-91.796875,-162.59765625,0.0,1722283804.5014486
-105.95703125,-115.234375,-85.9375,-151.3671875,0.0,1722283804.505304
-103.02734375,-121.09375,-91.796875,-152.83203125,0.0,1722283804.5091596
-101.07421875,-114.74609375,-94.7265625,-141.11328125,0.0,1722283804.513015
-85.9375,-104.4921875,-88.8671875,-120.60546875,0.0,1722283804.5168705
-62.5,-98.14453125,-75.1953125,-111.328125,0.0,1722283804.520726
-88.8671875,-109.86328125,-83.0078125,-135.7421875,0.0,1722283804.5245814
-121.58203125,-123.53515625,-105.95703125,-169.43359375,0.0,1722283804.5284371
-116.69921875,-119.62890625,-94.7265625,-164.0625,0.0,1722283804.5322926
-119.62890625,-118.65234375,-90.8203125,-149.4140625,0.0,1722283804.536148
-110.3515625,-116.69921875,-92.7734375,-142.578125,0.0,1722283804.5400035
-100.5859375,-117.67578125,-91.30859375,-138.671875,0.0,1722283804.544378
-100.5859375,-110.83984375,-85.44921875,-125.0,0.0,1722283804.5482337
-83.49609375,-108.88671875,-78.61328125,-117.67578125,0.0,1722283804.5520897
-79.58984375,-114.74609375,-84.47265625,-120.60546875,0.0,1722283804.5559454
-82.03125,-110.3515625,-85.44921875,-115.234375,0.0,1722283804.5598013
-77.1484375,-104.4921875,-80.56640625,-95.21484375,0.0,1722283804.563657
-67.87109375,-101.07421875,-81.54296875,-83.49609375,0.0,1722283804.567513
-75.1953125,-110.3515625,-98.6328125,-110.3515625,0.0,1722283804.571369
-76.66015625,-111.328125,-100.5859375,-118.65234375,0.0,1722283804.5752246
-70.3125,-104.00390625,-77.63671875,-90.33203125,0.0,1722283804.5790806
-82.03125,-108.88671875,-83.0078125,-100.5859375,0.0,1722283804.5829363
-80.56640625,-115.72265625,-94.7265625,-108.88671875,0.0,1722283804.5867922
-74.21875,-114.2578125,-95.703125,-106.93359375,0.0,1722283804.5911126
-79.1015625,-108.88671875,-91.30859375,-126.46484375,0.0,1722283804.5949688
-79.1015625,-111.328125,-86.9140625,-123.046875,0.0,1722283804.598825
-75.1953125,-120.60546875,-92.7734375,-106.93359375,0.0,1722283804.6026812
-84.9609375,-120.60546875,-100.09765625,-116.2109375,0.0,1722283804.6065373
-74.21875,-106.93359375,-83.984375,-109.375,0.0,1722283804.6103935
-73.2421875,-121.09375,-85.44921875,-107.91015625,0.0,1722283804.6142497
-97.16796875,-136.23046875,-109.86328125,-146.97265625,0.0,1722283804.618106
-98.14453125,-126.953125,-102.05078125,-143.5546875,0.0,1722283804.621962
-98.14453125,-118.65234375,-86.9140625,-131.34765625,0.0,1722283804.625818
-81.0546875,-106.4453125,-83.0078125,-132.32421875,0.0,1722283804.6296742
-78.125,-99.12109375,-83.0078125,-114.2578125,0.0,1722283804.6335304
-98.14453125,-122.0703125,-97.16796875,-116.2109375,0.0,1722283804.6381679
-102.05078125,-126.953125,-94.7265625,-124.51171875,0.0,1722283804.6420245
-111.328125,-121.58203125,-91.30859375,-129.39453125,0.0,1722283804.6458812
-109.375,-127.44140625,-99.609375,-142.08984375,0.0,1722283804.6497378
-96.19140625,-119.62890625,-96.6796875,-134.27734375,0.0,1722283804.6535945
-82.03125,-111.81640625,-85.44921875,-118.1640625,0.0,1722283804.6574512
-89.84375,-116.2109375,-88.8671875,-135.7421875,0.0,1722283804.6613078
-100.5859375,-116.2109375,-89.35546875,-124.51171875,0.0,1722283804.6651645
-90.33203125,-118.1640625,-86.9140625,-104.4921875,0.0,1722283804.6690211
-88.37890625,-120.1171875,-86.9140625,-120.60546875,0.0,1722283804.6728778
-96.19140625,-121.58203125,-87.890625,-133.7890625,0.0,1722283804.6767344
-104.4921875,-112.79296875,-86.9140625,-137.20703125,0.0,1722283804.680591
-104.00390625,-104.4921875,-74.21875,-126.953125,0.0,1722283804.6851466
-95.703125,-103.515625,-68.84765625,-119.62890625,0.0,1722283804.6890037
-102.05078125,-106.93359375,-80.078125,-125.9765625,0.0,1722283804.6928608
-95.703125,-103.515625,-81.54296875,-136.23046875,0.0,1722283804.696718
-88.37890625,-94.23828125,-71.77734375,-122.55859375,0.0,1722283804.700575
-78.125,-93.75,-73.2421875,-105.95703125,0.0,1722283804.7044322
-93.75,-100.5859375,-81.54296875,-129.39453125,0.0,1722283804.7082894
-102.5390625,-108.3984375,-78.125,-125.9765625,0.0,1722283804.7121465
-54.19921875,-98.14453125,-52.734375,-74.21875,0.0,1722283804.7160037
-47.8515625,-95.21484375,-69.3359375,-96.6796875,0.0,1722283804.7198608
-83.984375,-99.609375,-92.28515625,-145.5078125,0.0,1722283804.723718
-70.80078125,-91.796875,-77.1484375,-128.41796875,0.0,1722283804.727575
-57.12890625,-86.42578125,-81.0546875,-117.1875,0.0,1722283804.7321596
-72.75390625,-89.35546875,-97.65625,-114.74609375,0.0,1722283804.7360172
-69.3359375,-91.30859375,-105.95703125,-115.72265625,0.0,1722283804.7398748
-55.6640625,-82.51953125,-98.14453125,-104.98046875,0.0,1722283804.7437325
-57.6171875,-75.1953125,-94.23828125,-88.8671875,0.0,1722283804.74759
-47.8515625,-76.171875,-102.05078125,-89.35546875,0.0,1722283804.7514477
-39.0625,-79.1015625,-109.375,-83.49609375,0.0,1722283804.7553053
-44.921875,-75.1953125,-104.00390625,-87.890625,0.0,1722283804.759163
-47.8515625,-69.82421875,-100.09765625,-92.7734375,0.0,1722283804.7630205
-51.7578125,-78.125,-117.67578125,-103.02734375,0.0,1722283804.7668781
-47.36328125,-78.61328125,-120.60546875,-113.76953125,0.0,1722283804.7707357
-24.90234375,-71.77734375,-108.3984375,-101.07421875,0.0,1722283804.774593
-15.625,-70.3125,-111.328125,-107.91015625,0.0,1722283804.7790492
-29.78515625,-75.68359375,-115.72265625,-109.86328125,0.0,1722283804.782907
-39.55078125,-78.61328125,-108.88671875,-91.796875,0.0,1722283804.786765
-25.390625,-76.66015625,-98.14453125,-82.51953125,0.0,1722283804.7906232
-32.2265625,-88.8671875,-98.6328125,-93.75,0.0,1722283804.794481
-55.17578125,-94.7265625,-101.07421875,-95.703125,0.0,1722283804.7983391
-52.734375,-93.75,-100.5859375,-106.93359375,0.0,1722283804.802197
-34.1796875,-91.796875,-97.16796875,-115.234375,0.0,1722283804.806055
-48.33984375,-97.16796875,-101.07421875,-109.86328125,0.0,1722283804.809913
-74.21875,-108.3984375,-113.76953125,-121.58203125,0.0,1722283804.813771
-61.03515625,-100.5859375,-108.3984375,-116.69921875,0.0,1722283804.817629
-51.26953125,-99.609375,-103.02734375,-105.95703125,0.0,1722283804.821487
-60.05859375,-108.3984375,-103.02734375,-113.28125,0.0,1722283804.8259006
-70.80078125,-111.328125,-101.07421875,-129.39453125,0.0,1722283804.829759
-65.4296875,-104.98046875,-97.65625,-125.0,0.0,1722283804.8336172
-68.84765625,-111.328125,-100.09765625,-103.02734375,0.0,1722283804.8374755
-74.70703125,-117.1875,-102.5390625,-99.12109375,0.0,1722283804.8413339
-69.3359375,-107.421875,-95.21484375,-110.3515625,0.0,1722283804.8451922
-66.40625,-107.421875,-92.28515625,-109.375,0.0,1722283804.8490505
-62.98828125,-110.83984375,-99.12109375,-102.05078125,0.0,1722283804.8529088
-78.125,-122.0703125,-115.234375,-113.28125,0.0,1722283804.8567672
-80.56640625,-122.0703125,-107.421875,-118.65234375,0.0,1722283804.8606255
-74.21875,-113.76953125,-91.30859375,-114.74609375,0.0,1722283804.864484
-68.359375,-110.83984375,-89.84375,-109.86328125,0.0,1722283804.8683424
-68.84765625,-115.234375,-92.28515625,-111.328125,0.0,1722283804.872699
-69.82421875,-115.72265625,-87.890625,-91.796875,0.0,1722283804.8765576
-65.4296875,-107.91015625,-86.9140625,-80.56640625,0.0,1722283804.8804162
-62.98828125,-110.83984375,-90.8203125,-111.328125,0.0,1722283804.884275
-66.40625,-119.140625,-94.23828125,-133.30078125,0.0,1722283804.8881335
-62.5,-115.72265625,-89.35546875,-132.32421875,0.0,1722283804.8919923
-42.48046875,-102.5390625,-74.70703125,-109.375,0.0,1722283804.895851
-61.5234375,-108.88671875,-80.56640625,-108.3984375,0.0,1722283804.8997095
-94.7265625,-128.41796875,-101.07421875,-141.11328125,0.0,1722283804.9035683
-76.171875,-123.53515625,-90.8203125,-127.44140625,0.0,1722283804.9074268
-66.89453125,-118.65234375,-78.61328125,-102.05078125,0.0,1722283804.9112856
-66.40625,-113.76953125,-74.21875,-103.02734375,0.0,1722283804.9151442
-61.5234375,-112.79296875,-79.58984375,-119.62890625,0.0,1722283804.919467
-63.96484375,-114.2578125,-83.0078125,-109.375,0.0,1722283804.9233258
-64.453125,-112.3046875,-75.68359375,-104.00390625,0.0,1722283804.9271848
-62.5,-111.328125,-74.21875,-104.98046875,0.0,1722283804.9310436
-59.5703125,-106.93359375,-79.1015625,-99.12109375,0.0,1722283804.9349027
-51.26953125,-98.6328125,-74.70703125,-98.6328125,0.0,1722283804.9387617
-54.19921875,-93.75,-59.08203125,-83.49609375,0.0,1722283804.9426205
-80.078125,-103.515625,-74.21875,-104.4921875,0.0,1722283804.9464796
-78.61328125,-107.91015625,-84.9609375,-113.76953125,0.0,1722283804.9503386
-55.17578125,-92.28515625,-64.453125,-93.26171875,0.0,1722283804.9541974
-57.12890625,-90.33203125,-63.4765625,-90.33203125,0.0,1722283804.9580564
-64.94140625,-96.19140625,-70.80078125,-79.1015625,0.0,1722283804.9619153
-56.640625,-96.6796875,-68.84765625,-73.2421875,0.0,1722283804.9665046
-47.36328125,-94.23828125,-60.546875,-80.078125,0.0,1722283804.9703639
-63.96484375,-97.16796875,-68.359375,-94.7265625,0.0,1722283804.9742234
-68.84765625,-103.02734375,-83.49609375,-112.3046875,0.0,1722283804.9780827
-62.98828125,-98.14453125,-76.66015625,-103.02734375,0.0,1722283804.9819422
-47.36328125,-90.33203125,-66.40625,-77.63671875,0.0,1722283804.9858017
-46.38671875,-98.6328125,-73.73046875,-94.7265625,0.0,1722283804.989661
-76.171875,-109.375,-83.49609375,-126.46484375,0.0,1722283804.9935205
-76.66015625,-101.07421875,-73.2421875,-114.74609375,0.0,1722283804.9973798
-54.19921875,-97.16796875,-62.98828125,-90.33203125,0.0,1722283805.0012393
-58.59375,-104.4921875,-71.2890625,-85.9375,0.0,1722283805.0050986
-82.51953125,-111.81640625,-73.73046875,-94.23828125,0.0,1722283805.008958
-72.75390625,-102.5390625,-63.4765625,-87.890625,0.0,1722283805.0135052
-66.40625,-101.07421875,-69.3359375,-103.02734375,0.0,1722283805.017365
-75.68359375,-109.86328125,-79.58984375,-111.81640625,0.0,1722283805.021225
-82.51953125,-103.02734375,-83.0078125,-102.5390625,0.0,1722283805.0250847
-84.9609375,-103.02734375,-79.1015625,-100.5859375,0.0,1722283805.0289445
-77.1484375,-103.515625,-79.1015625,-104.4921875,0.0,1722283805.0328045
-77.1484375,-104.4921875,-87.40234375,-109.86328125,0.0,1722283805.0366642
-86.42578125,-107.91015625,-83.0078125,-103.515625,0.0,1722283805.040524
-69.82421875,-108.88671875,-70.80078125,-92.28515625,0.0,1722283805.044384
-52.24609375,-101.07421875,-63.96484375,-93.26171875,0.0,1722283805.0482438
-73.73046875,-100.09765625,-83.49609375,-132.32421875,0.0,1722283805.0521035
-80.078125,-103.515625,-95.21484375,-126.953125,0.0,1722283805.0559635
-60.05859375,-95.703125,-84.47265625,-89.84375,0.0,1722283805.0604618
-62.01171875,-91.30859375,-85.9375,-104.98046875,0.0,1722283805.064322
-69.82421875,-105.46875,-94.7265625,-117.1875,0.0,1722283805.0681822
-62.5,-106.93359375,-92.7734375,-101.5625,0.0,1722283805.0720425
-66.89453125,-99.12109375,-86.9140625,-100.09765625,0.0,1722283805.0759027
-69.3359375,-95.703125,-77.1484375,-104.98046875,0.0,1722283805.079763
-67.3828125,-96.6796875,-75.1953125,-89.84375,0.0,1722283805.0836232
-63.4765625,-93.26171875,-80.56640625,-84.47265625,0.0,1722283805.0874834
-46.38671875,-77.63671875,-64.453125,-86.9140625,0.0,1722283805.0913436
-49.31640625,-78.125,-59.08203125,-83.0078125,0.0,1722283805.0952039
-72.265625,-94.7265625,-75.1953125,-95.703125,0.0,1722283805.099064
-69.82421875,-97.65625,-76.171875,-100.09765625,0.0,1722283805.1029243
-67.87109375,-97.65625,-77.1484375,-94.23828125,0.0,1722283805.107377
-77.63671875,-100.09765625,-79.1015625,-86.42578125,0.0,1722283805.1112378
-83.49609375,-105.46875,-78.61328125,-93.26171875,0.0,1722283805.1150982
-72.75390625,-101.5625,-69.3359375,-79.1015625,0.0,1722283805.118959
-66.40625,-91.796875,-68.84765625,-69.82421875,0.0,1722283805.1228194
-56.640625,-91.796875,-71.2890625,-78.61328125,0.0,1722283805.1266801
-57.6171875,-96.19140625,-72.75390625,-82.51953125,0.0,1722283805.1305406
-64.94140625,-100.09765625,-72.265625,-81.54296875,0.0,1722283805.1344013
-56.15234375,-102.5390625,-65.4296875,-82.51953125,0.0,1722283805.1382618
-59.5703125,-116.69921875,-75.1953125,-98.14453125,0.0,1722283805.1421225
-65.4296875,-117.67578125,-76.171875,-88.8671875,0.0,1722283805.1459832
-58.59375,-105.46875,-65.4296875,-79.58984375,0.0,1722283805.1498437
-61.03515625,-106.4453125,-69.82421875,-85.44921875,0.0,1722283805.1542585
-63.96484375,-102.5390625,-76.171875,-101.5625,0.0,1722283805.1581194
-53.7109375,-95.21484375,-70.3125,-103.02734375,0.0,1722283805.1619804
-49.8046875,-93.75,-63.96484375,-87.890625,0.0,1722283805.1658413
-46.875,-99.12109375,-66.89453125,-83.49609375,0.0,1722283805.1697023
-53.7109375,-105.95703125,-69.3359375,-78.125,0.0,1722283805.1735632
-60.05859375,-102.5390625,-71.77734375,-78.61328125,0.0,1722283805.1774242
-57.6171875,-87.40234375,-63.96484375,-72.265625,0.0,1722283805.1812851
-67.87109375,-93.75,-65.4296875,-76.66015625,0.0,1722283805.185146
-80.56640625,-116.2109375,-84.47265625,-95.703125,0.0,1722283805.189007
-69.82421875,-101.07421875,-77.1484375,-87.890625,0.0,1722283805.1928678
-67.87109375,-94.23828125,-68.84765625,-83.0078125,0.0,1722283805.1967287
-72.75390625,-102.05078125,-71.77734375,-83.984375,0.0,1722283805.2011082
-86.9140625,-108.3984375,-80.078125,-105.95703125,0.0,1722283805.2049694
-81.54296875,-103.02734375,-74.21875,-103.02734375,0.0,1722283805.2088306
-74.70703125,-89.35546875,-70.80078125,-95.21484375,0.0,1722283805.212692
-76.171875,-86.9140625,-69.3359375,-98.14453125,0.0,1722283805.2165532
-64.453125,-91.796875,-68.84765625,-92.7734375,0.0,1722283805.2204144
-63.4765625,-94.7265625,-70.80078125,-85.44921875,0.0,1722283805.2242756
-58.59375,-93.75,-64.453125,-74.21875,0.0,1722283805.2281368
-68.84765625,-106.93359375,-76.66015625,-89.35546875,0.0,1722283805.2319982
-69.82421875,-113.28125,-85.44921875,-96.6796875,0.0,1722283805.2358594
-55.6640625,-102.05078125,-73.2421875,-89.84375,0.0,1722283805.2397206
-54.19921875,-96.19140625,-68.359375,-83.984375,0.0,1722283805.2435818
-58.10546875,-98.14453125,-73.2421875,-99.12109375,0.0,1722283805.2479246
-58.10546875,-95.703125,-75.68359375,-104.00390625,0.0,1722283805.251786
-48.828125,-87.40234375,-63.4765625,-84.9609375,0.0,1722283805.2556477
-53.7109375,-93.26171875,-65.4296875,-92.7734375,0.0,1722283805.259509
-77.1484375,-99.12109375,-75.1953125,-99.609375,0.0,1722283805.2633708
-71.77734375,-93.26171875,-69.82421875,-88.37890625,0.0,1722283805.2672322
-39.0625,-84.47265625,-65.4296875,-70.80078125,0.0,1722283805.2710938
-46.875,-91.796875,-69.3359375,-79.1015625,0.0,1722283805.2749553
-79.1015625,-103.515625,-88.37890625,-104.00390625,0.0,1722283805.278817
-72.75390625,-103.02734375,-82.51953125,-108.88671875,0.0,1722283805.2826784
-59.08203125,-103.02734375,-77.63671875,-103.02734375,0.0,1722283805.28654
-62.5,-99.12109375,-84.9609375,-105.46875,0.0,1722283805.2904015
-68.359375,-96.19140625,-83.49609375,-105.46875,0.0,1722283805.2946887
-59.5703125,-104.4921875,-73.73046875,-81.54296875,0.0,1722283805.2985506
-55.6640625,-100.09765625,-72.75390625,-77.1484375,0.0,1722283805.3024123
-56.640625,-89.84375,-76.171875,-85.9375,0.0,1722283805.3062742
-51.7578125,-88.8671875,-74.21875,-95.703125,0.0,1722283805.3101358
-44.921875,-79.58984375,-66.40625,-88.8671875,0.0,1722283805.3139977
-36.1328125,-75.68359375,-57.12890625,-70.3125,0.0,1722283805.3178594
-55.17578125,-88.37890625,-68.84765625,-84.9609375,0.0,1722283805.3217213
-79.1015625,-91.796875,-76.171875,-89.84375,0.0,1722283805.325583
-61.03515625,-81.0546875,-68.84765625,-83.49609375,0.0,1722283805.329445
-57.6171875,-79.1015625,-64.94140625,-101.07421875,0.0,1722283805.3333066
-68.359375,-84.47265625,-63.96484375,-100.09765625,0.0,1722283805.3371685
-65.91796875,-86.42578125,-71.2890625,-101.5625,0.0,1722283805.3414214
-63.4765625,-83.49609375,-62.5,-93.26171875,0.0,1722283805.3452833
-58.10546875,-81.54296875,-51.7578125,-77.63671875,0.0,1722283805.3491454
-51.7578125,-84.47265625,-62.01171875,-84.47265625,0.0,1722283805.3530073
-57.12890625,-84.9609375,-61.03515625,-92.28515625,0.0,1722283805.3568695
-49.31640625,-78.125,-49.31640625,-83.49609375,0.0,1722283805.3607314
-48.33984375,-83.49609375,-60.05859375,-86.9140625,0.0,1722283805.3645935
-53.22265625,-92.7734375,-62.01171875,-86.42578125,0.0,1722283805.3684554
-42.48046875,-94.23828125,-54.19921875,-79.58984375,0.0,1722283805.3723176
-44.43359375,-91.30859375,-50.78125,-71.77734375,0.0,1722283805.3761795
-59.5703125,-83.984375,-58.59375,-76.66015625,0.0,1722283805.3800416
-66.89453125,-89.35546875,-64.453125,-90.33203125,0.0,1722283805.3839035
-54.19921875,-90.8203125,-52.734375,-82.03125,0.0,1722283805.38845
-62.98828125,-86.9140625,-58.10546875,-85.9375,0.0,1722283805.3923123
-76.66015625,-87.890625,-67.87109375,-95.703125,0.0,1722283805.3961747
-63.96484375,-90.33203125,-67.87109375,-100.09765625,0.0,1722283805.400037
-48.828125,-85.9375,-56.640625,-88.37890625,0.0,1722283805.4038997
-53.22265625,-82.51953125,-48.33984375,-75.68359375,0.0,1722283805.407762
-61.03515625,-81.0546875,-53.22265625,-76.171875,0.0,1722283805.4116244
-61.5234375,-84.9609375,-57.12890625,-79.58984375,0.0,1722283805.4154868
-55.6640625,-85.44921875,-54.19921875,-76.171875,0.0,1722283805.4193492
-52.734375,-70.80078125,-52.24609375,-61.03515625,0.0,1722283805.4232116
-71.2890625,-73.73046875,-53.7109375,-81.54296875,0.0,1722283805.4270742
-75.1953125,-83.984375,-52.734375,-102.05078125,0.0,1722283805.4309366
-61.03515625,-83.0078125,-52.24609375,-92.28515625,0.0,1722283805.4354026
-64.453125,-87.40234375,-54.6875,-94.7265625,0.0,1722283805.4392653
-67.3828125,-107.91015625,-62.5,-105.95703125,0.0,1722283805.443128
-65.4296875,-95.21484375,-62.01171875,-105.95703125,0.0,1722283805.4469907
-59.5703125,-77.63671875,-54.6875,-91.796875,0.0,1722283805.4508536
-62.01171875,-81.0546875,-55.6640625,-100.09765625,0.0,1722283805.4547164
-74.21875,-86.9140625,-65.4296875,-100.09765625,0.0,1722283805.458579
-73.2421875,-102.5390625,-61.5234375,-92.7734375,0.0,1722283805.462442
-51.26953125,-90.33203125,-30.76171875,-83.984375,0.0,1722283805.4663048
-51.7578125,-71.77734375,-34.1796875,-89.35546875,0.0,1722283805.4701674
-79.1015625,-80.56640625,-61.5234375,-111.81640625,0.0,1722283805.4740303
-67.3828125,-79.58984375,-55.6640625,-100.5859375,0.0,1722283805.477893
-57.12890625,-71.77734375,-49.31640625,-88.37890625,0.0,1722283805.4823186
-58.10546875,-77.1484375,-50.78125,-84.9609375,0.0,1722283805.4861817
-51.26953125,-86.42578125,-56.640625,-88.8671875,0.0,1722283805.4900448
-47.36328125,-75.68359375,-53.22265625,-82.03125,0.0,1722283805.493908
-50.29296875,-71.77734375,-46.38671875,-78.61328125,0.0,1722283805.497771
-54.19921875,-78.125,-49.8046875,-90.8203125,0.0,1722283805.5016341
-50.29296875,-83.0078125,-50.29296875,-97.65625,0.0,1722283805.5054972
-51.7578125,-82.03125,-46.875,-97.65625,0.0,1722283805.5093603
-52.24609375,-68.84765625,-44.921875,-87.890625,0.0,1722283805.5132234
-52.734375,-74.70703125,-54.6875,-96.19140625,0.0,1722283805.5170865
-61.5234375,-88.8671875,-59.5703125,-94.23828125,0.0,1722283805.5209496
-58.10546875,-83.984375,-52.734375,-74.70703125,0.0,1722283805.5248127
-63.4765625,-83.0078125,-59.08203125,-95.21484375,0.0,1722283805.529197
-75.1953125,-96.6796875,-71.2890625,-109.86328125,0.0,1722283805.5330603
-59.5703125,-96.19140625,-68.84765625,-93.75,0.0,1722283805.536924
-50.78125,-88.8671875,-57.12890625,-76.171875,0.0,1722283805.5407872
-60.546875,-85.44921875,-54.19921875,-76.66015625,0.0,1722283805.5446506
-67.3828125,-83.984375,-53.22265625,-88.8671875,0.0,1722283805.548514
-77.63671875,-93.75,-63.4765625,-98.14453125,0.0,1722283805.5523775
-63.96484375,-90.33203125,-57.6171875,-76.66015625,0.0,1722283805.5562408
-59.5703125,-92.7734375,-52.734375,-70.80078125,0.0,1722283805.5601041
-86.9140625,-109.375,-74.21875,-106.4453125,0.0,1722283805.5639675
-77.63671875,-95.21484375,-62.01171875,-99.609375,0.0,1722283805.567831
-63.4765625,-93.75,-51.26953125,-101.07421875,0.0,1722283805.5716944
-64.453125,-97.65625,-62.98828125,-111.81640625,0.0,1722283805.5763443
-70.3125,-89.84375,-63.96484375,-104.00390625,0.0,1722283805.580208
-68.359375,-85.44921875,-55.17578125,-92.28515625,0.0,1722283805.5840719
-58.59375,-90.8203125,-60.05859375,-83.49609375,0.0,1722283805.5879357
-57.6171875,-88.8671875,-61.5234375,-83.984375,0.0,1722283805.5917995
-60.05859375,-83.984375,-53.22265625,-100.5859375,0.0,1722283805.5956635
-60.05859375,-86.9140625,-56.640625,-110.3515625,0.0,1722283805.5995274
-48.828125,-83.49609375,-48.33984375,-96.19140625,0.0,1722283805.6033912
-67.3828125,-92.7734375,-60.546875,-97.65625,0.0,1722283805.607255
-72.75390625,-90.33203125,-70.3125,-98.6328125,0.0,1722283805.6111188
-49.8046875,-74.21875,-51.26953125,-90.8203125,0.0,1722283805.6149826
-54.19921875,-83.0078125,-53.22265625,-86.9140625,0.0,1722283805.6188464
-75.68359375,-95.703125,-64.94140625,-88.8671875,0.0,1722283805.6231623
-84.47265625,-95.703125,-62.98828125,-91.30859375,0.0,1722283805.6270263
-70.3125,-81.0546875,-53.22265625,-91.796875,0.0,1722283805.6308906
-69.82421875,-80.078125,-54.6875,-94.7265625,0.0,1722283805.6347547
-75.1953125,-87.890625,-59.5703125,-96.19140625,0.0,1722283805.6386187
-65.4296875,-87.40234375,-55.6640625,-84.47265625,0.0,1722283805.6424828
-54.6875,-75.68359375,-49.31640625,-86.42578125,0.0,1722283805.646347
-66.89453125,-67.87109375,-58.10546875,-95.21484375,0.0,1722283805.650211
-61.5234375,-86.42578125,-62.5,-70.80078125,0.0,1722283805.6540751
-53.22265625,-95.703125,-57.6171875,-64.94140625,0.0,1722283805.6579392
-61.03515625,-74.21875,-51.26953125,-92.28515625,0.0,1722283805.6618032
-60.05859375,-76.66015625,-61.03515625,-99.12109375,0.0,1722283805.6656675
-56.640625,-89.84375,-80.56640625,-78.61328125,0.0,1722283805.669978
-40.52734375,-80.078125,-68.359375,-60.546875,0.0,1722283805.6738424
-33.203125,-81.0546875,-61.5234375,-58.59375,0.0,1722283805.6777067
-39.55078125,-80.56640625,-68.359375,-60.05859375,0.0,1722283805.681571
-29.78515625,-81.54296875,-66.40625,-53.22265625,0.0,1722283805.6854353
-16.11328125,-77.1484375,-59.08203125,-46.38671875,0.0,1722283805.6892998
-13.18359375,-71.2890625,-54.19921875,-46.875,0.0,1722283805.693164
-35.64453125,-88.37890625,-63.4765625,-53.22265625,0.0,1722283805.6970284
-50.29296875,-90.33203125,-67.87109375,-59.08203125,0.0,1722283805.700893
-36.1328125,-73.73046875,-48.828125,-40.52734375,0.0,1722283805.7047572
-28.80859375,-73.73046875,-41.50390625,-45.8984375,0.0,1722283805.7086215
-47.8515625,-82.03125,-53.7109375,-80.56640625,0.0,1722283805.7124858
-58.10546875,-84.47265625,-62.01171875,-90.8203125,0.0,1722283805.7167156
-34.66796875,-76.66015625,-57.6171875,-76.66015625,0.0,1722283805.72058
-32.2265625,-76.171875,-58.59375,-69.3359375,0.0,1722283805.7244446
-46.875,-77.1484375,-61.03515625,-72.265625,0.0,1722283805.7283094
-42.48046875,-69.3359375,-50.78125,-73.73046875,0.0,1722283805.732174
-25.390625,-62.5,-37.59765625,-59.5703125,0.0,1722283805.7360384
-29.78515625,-73.2421875,-50.29296875,-58.10546875,0.0,1722283805.739903
-49.31640625,-86.42578125,-64.94140625,-78.61328125,0.0,1722283805.7437675
-47.8515625,-76.171875,-56.15234375,-62.5,0.0,1722283805.747632
-35.15625,-72.75390625,-48.33984375,-49.8046875,0.0,1722283805.7514966
-37.59765625,-83.0078125,-48.828125,-57.12890625,0.0,1722283805.7553613
-40.52734375,-80.078125,-51.7578125,-57.6171875,0.0,1722283805.7592258
-30.76171875,-81.0546875,-46.38671875,-57.6171875,0.0,1722283805.763703
-20.99609375,-85.9375,-39.0625,-61.5234375,0.0,1722283805.7675679
-30.76171875,-84.9609375,-45.41015625,-59.5703125,0.0,1722283805.7714329
-32.2265625,-77.63671875,-46.875,-45.8984375,0.0,1722283805.7752976
-13.18359375,-65.4296875,-40.52734375,-36.62109375,0.0,1722283805.7791626
-19.53125,-66.40625,-43.9453125,-45.41015625,0.0,1722283805.7830274
-28.80859375,-72.265625,-48.828125,-62.5,0.0,1722283805.7868924
-29.296875,-75.1953125,-47.36328125,-66.89453125,0.0,1722283805.7907572
-44.43359375,-73.2421875,-54.19921875,-78.61328125,0.0,1722283805.7946222
-43.9453125,-68.359375,-53.22265625,-75.68359375,0.0,1722283805.7984872
-42.48046875,-83.984375,-57.6171875,-67.3828125,0.0,1722283805.802352
-48.828125,-90.33203125,-57.12890625,-71.77734375,0.0,1722283805.806217
-41.50390625,-81.54296875,-49.31640625,-66.40625,0.0,1722283805.810652
-43.45703125,-75.1953125,-53.7109375,-65.91796875,0.0,1722283805.8145173
-57.12890625,-76.66015625,-54.19921875,-76.171875,0.0,1722283805.8183825
-55.17578125,-73.73046875,-44.921875,-64.94140625,0.0,1722283805.8222477
-56.640625,-74.70703125,-40.52734375,-59.08203125,0.0,1722283805.8261127
-63.96484375,-75.68359375,-41.50390625,-61.5234375,0.0,1722283805.829978
-60.05859375,-79.1015625,-53.22265625,-63.96484375,0.0,1722283805.8338432
-50.29296875,-85.44921875,-63.96484375,-79.58984375,0.0,1722283805.8377085
-34.66796875,-67.3828125,-45.8984375,-59.5703125,0.0,1722283805.8415737
-52.24609375,-70.3125,-44.43359375,-63.4765625,0.0,1722283805.845439
-80.078125,-91.796875,-65.4296875,-87.890625,0.0,1722283805.8493042
-68.84765625,-84.47265625,-51.26953125,-81.0546875,0.0,1722283805.8531694
-56.640625,-79.58984375,-44.43359375,-79.1015625,0.0,1722283805.8575914
-62.5,-84.9609375,-54.6875,-81.54296875,0.0,1722283805.861457
-79.58984375,-90.33203125,-52.734375,-97.65625,0.0,1722283805.8653226
-77.63671875,-89.84375,-44.43359375,-96.6796875,0.0,1722283805.869188
-63.4765625,-83.0078125,-45.8984375,-90.33203125,0.0,1722283805.8730536
-70.3125,-79.58984375,-47.8515625,-83.984375,0.0,1722283805.876919
-79.1015625,-83.0078125,-47.8515625,-82.03125,0.0,1722283805.8807845
-62.01171875,-85.9375,-43.9453125,-83.984375,0.0,1722283805.8846502
-44.921875,-83.49609375,-43.9453125,-84.47265625,0.0,1722283805.8885157
-71.2890625,-94.7265625,-59.5703125,-101.5625,0.0,1722283805.8923812
-85.9375,-94.23828125,-59.08203125,-110.3515625,0.0,1722283805.8962467
-66.40625,-83.49609375,-48.828125,-106.93359375,0.0,1722283805.9001122
-56.15234375,-87.40234375,-46.38671875,-94.23828125,0.0,1722283805.9044755
-69.3359375,-89.35546875,-57.12890625,-94.23828125,0.0,1722283805.9083412
-72.75390625,-85.9375,-59.5703125,-105.46875,0.0,1722283805.9122071
-62.01171875,-80.56640625,-43.45703125,-93.26171875,0.0,1722283805.9160728
-55.6640625,-77.1484375,-42.48046875,-81.54296875,0.0,1722283805.9199386
-55.17578125,-79.1015625,-47.36328125,-81.0546875,0.0,1722283805.9238043
-63.4765625,-82.51953125,-48.828125,-77.63671875,0.0,1722283805.9276702
-58.10546875,-79.58984375,-39.0625,-74.21875,0.0,1722283805.931536
-52.24609375,-84.47265625,-42.96875,-76.66015625,0.0,1722283805.9354017
-83.0078125,-97.65625,-64.94140625,-87.40234375,0.0,1722283805.9392676
-86.42578125,-89.35546875,-54.19921875,-80.078125,0.0,1722283805.9431334
-80.56640625,-88.8671875,-58.59375,-85.9375,0.0,1722283805.946999
-81.0546875,-91.30859375,-65.4296875,-90.33203125,0.0,1722283805.9513383
-81.0546875,-93.75,-62.01171875,-97.65625,0.0,1722283805.9552042
-76.66015625,-94.23828125,-62.01171875,-97.16796875,0.0,1722283805.9590704
-76.171875,-93.26171875,-65.4296875,-83.984375,0.0,1722283805.9629364
-73.73046875,-93.75,-68.359375,-90.8203125,0.0,1722283805.9668024
-58.10546875,-86.9140625,-62.98828125,-93.26171875,0.0,1722283805.9706686
-59.5703125,-87.40234375,-62.01171875,-94.23828125,0.0,1722283805.9745345
-62.01171875,-84.47265625,-51.7578125,-87.40234375,0.0,1722283805.9784005
-76.171875,-87.890625,-58.10546875,-95.703125,0.0,1722283805.9822667
-72.265625,-82.03125,-62.01171875,-85.9375,0.0,1722283805.9861326
-50.29296875,-72.265625,-53.22265625,-58.59375,0.0,1722283805.9899988
-56.15234375,-75.1953125,-48.33984375,-69.82421875,0.0,1722283805.9938648
-76.171875,-80.56640625,-51.7578125,-90.8203125,0.0,1722283805.9981658
-71.2890625,-78.125,-52.734375,-80.56640625,0.0,1722283806.002032
-53.22265625,-70.80078125,-45.41015625,-62.01171875,0.0,1722283806.0058985
-65.4296875,-81.0546875,-51.26953125,-75.1953125,0.0,1722283806.0097647
-73.2421875,-86.42578125,-52.734375,-83.0078125,0.0,1722283806.013631
-61.5234375,-82.51953125,-47.8515625,-84.47265625,0.0,1722283806.0174973
-49.8046875,-76.66015625,-43.45703125,-76.66015625,0.0,1722283806.0213635
-52.734375,-76.171875,-44.921875,-64.94140625,0.0,1722283806.02523
-85.44921875,-92.28515625,-68.359375,-83.0078125,0.0,1722283806.0290961
-86.42578125,-87.890625,-67.87109375,-85.9375,0.0,1722283806.0329623
-71.77734375,-72.265625,-56.640625,-76.171875,0.0,1722283806.0368288
-75.1953125,-83.49609375,-65.91796875,-87.890625,0.0,1722283806.040695
-79.58984375,-86.42578125,-64.453125,-109.375,0.0,1722283806.0449827
-70.80078125,-70.3125,-57.6171875,-96.19140625,0.0,1722283806.048849
-74.70703125,-78.61328125,-65.91796875,-91.796875,0.0,1722283806.0527155
-90.8203125,-86.42578125,-65.4296875,-101.5625,0.0,1722283806.056582
-82.51953125,-77.1484375,-53.22265625,-100.09765625,0.0,1722283806.0604486
-70.3125,-69.3359375,-44.43359375,-81.54296875,0.0,1722283806.064315
-62.5,-71.2890625,-38.0859375,-61.03515625,0.0,1722283806.0681815
-66.40625,-87.40234375,-52.734375,-76.171875,0.0,1722283806.0720482
-75.68359375,-86.42578125,-65.4296875,-85.9375,0.0,1722283806.0759146
-59.5703125,-69.3359375,-52.24609375,-73.73046875,0.0,1722283806.079781
-54.19921875,-66.40625,-47.36328125,-88.8671875,0.0,1722283806.0836477
-64.453125,-77.1484375,-52.734375,-104.00390625,0.0,1722283806.0875142
-71.2890625,-80.56640625,-50.29296875,-92.28515625,0.0,1722283806.0917392
-65.4296875,-76.66015625,-46.38671875,-86.42578125,0.0,1722283806.0956059
-69.3359375,-91.30859375,-52.24609375,-101.07421875,0.0,1722283806.0994725
-79.1015625,-100.5859375,-59.5703125,-109.375,0.0,1722283806.1033392
-61.5234375,-93.75,-61.03515625,-98.6328125,0.0,1722283806.107206
-40.0390625,-80.078125,-45.41015625,-69.82421875,0.0,1722283806.1110728
-74.70703125,-81.54296875,-40.0390625,-87.890625,0.0,1722283806.1149395
-116.69921875,-100.5859375,-61.03515625,-129.8828125,0.0,1722283806.1188061
-114.74609375,-93.75,-57.12890625,-129.39453125,0.0,1722283806.1226728
-121.58203125,-84.9609375,-47.8515625,-146.97265625,0.0,1722283806.1265395
-135.7421875,-87.40234375,-50.29296875,-156.25,0.0,1722283806.1304061
-157.2265625,-91.796875,-57.12890625,-166.9921875,0.0,1722283806.1342728
-164.0625,-94.23828125,-62.98828125,-194.3359375,0.0,1722283806.1387265
-160.15625,-91.796875,-62.98828125,-191.40625,0.0,1722283806.1425934
-169.43359375,-95.703125,-62.98828125,-185.05859375,0.0,1722283806.1464603
-175.78125,-101.07421875,-64.94140625,-178.22265625,0.0,1722283806.1503274
-149.90234375,-98.14453125,-62.5,-162.59765625,0.0,1722283806.1541944
-121.58203125,-98.6328125,-60.05859375,-142.08984375,0.0,1722283806.1580615
-119.62890625,-96.19140625,-61.5234375,-149.90234375,0.0,1722283806.1619284
-114.74609375,-83.984375,-61.5234375,-138.18359375,0.0,1722283806.1657953
-104.00390625,-87.890625,-59.5703125,-106.4453125,0.0,1722283806.1696625
-87.890625,-86.42578125,-60.546875,-116.2109375,0.0,1722283806.1735294
-93.75,-87.40234375,-64.453125,-109.86328125,0.0,1722283806.1773965
-100.5859375,-90.8203125,-58.10546875,-94.23828125,0.0,1722283806.1812634
-83.984375,-84.47265625,-51.26953125,-92.28515625,0.0,1722283806.1856704
-72.75390625,-82.03125,-50.29296875,-83.49609375,0.0,1722283806.1895378
-83.49609375,-88.37890625,-50.78125,-93.75,0.0,1722283806.193405
-91.796875,-89.35546875,-54.6875,-84.47265625,0.0,1722283806.1972723
-78.125,-83.984375,-51.7578125,-72.265625,0.0,1722283806.2011395
-67.3828125,-82.51953125,-41.9921875,-72.265625,0.0,1722283806.2050068
-72.75390625,-94.23828125,-52.734375,-69.82421875,0.0,1722283806.2088742
-77.1484375,-95.703125,-56.640625,-79.58984375,0.0,1722283806.2127414
-50.29296875,-72.75390625,-29.78515625,-64.94140625,0.0,1722283806.2166088
-48.828125,-75.68359375,-34.1796875,-58.10546875,0.0,1722283806.220476
-74.70703125,-95.703125,-59.5703125,-77.1484375,0.0,1722283806.2243433
-67.87109375,-87.40234375,-50.29296875,-69.82421875,0.0,1722283806.2282107
-61.5234375,-83.49609375,-45.8984375,-74.70703125,0.0,1722283806.2325835
-69.3359375,-88.37890625,-57.12890625,-78.125,0.0,1722283806.236451
-75.1953125,-90.8203125,-64.94140625,-73.73046875,0.0,1722283806.2403185
-64.94140625,-88.37890625,-59.08203125,-81.0546875,0.0,1722283806.2441862
-59.08203125,-75.1953125,-51.7578125,-83.0078125,0.0,1722283806.2480538
-60.546875,-75.1953125,-55.17578125,-79.58984375,0.0,1722283806.2519212
-61.5234375,-77.63671875,-61.5234375,-83.0078125,0.0,1722283806.2557888
-47.36328125,-70.80078125,-53.22265625,-77.1484375,0.0,1722283806.2596564
-37.59765625,-63.96484375,-45.8984375,-78.61328125,0.0,1722283806.2635238
-61.03515625,-74.21875,-58.59375,-94.7265625,0.0,1722283806.2673914
-64.94140625,-82.03125,-58.59375,-73.73046875,0.0,1722283806.271259
-56.640625,-68.359375,-47.36328125,-60.546875,0.0,1722283806.2751265
-68.84765625,-67.3828125,-50.78125,-79.58984375,0.0,1722283806.2794719
-78.61328125,-74.70703125,-58.10546875,-94.23828125,0.0,1722283806.2833397
-72.265625,-70.3125,-53.22265625,-89.84375,0.0,1722283806.2872076
-52.734375,-66.40625,-51.26953125,-76.66015625,0.0,1722283806.2910752
-55.17578125,-66.89453125,-52.24609375,-78.125,0.0,1722283806.294943
-67.87109375,-66.89453125,-42.96875,-78.125,0.0,1722283806.298811
-69.3359375,-79.58984375,-43.9453125,-78.61328125,0.0,1722283806.3026786
-55.17578125,-72.265625,-31.25,-53.7109375,0.0,1722283806.3065464
-62.01171875,-67.3828125,-29.78515625,-51.26953125,0.0,1722283806.3104143
-92.7734375,-87.890625,-50.29296875,-76.171875,0.0,1722283806.3142822
-79.58984375,-82.03125,-41.9921875,-70.80078125,0.0,1722283806.3181498
-63.96484375,-83.0078125,-43.45703125,-83.49609375,0.0,1722283806.3220177
-82.51953125,-82.03125,-51.26953125,-98.14453125,0.0,1722283806.326319
-82.51953125,-67.87109375,-47.36328125,-83.984375,0.0,1722283806.330187
-55.6640625,-68.359375,-42.48046875,-71.77734375,0.0,1722283806.334055
-61.03515625,-81.0546875,-47.36328125,-81.54296875,0.0,1722283806.337923
-76.66015625,-74.70703125,-53.7109375,-88.8671875,0.0,1722283806.3417912
-62.98828125,-71.2890625,-51.26953125,-83.49609375,0.0,1722283806.345659
-61.5234375,-80.56640625,-49.8046875,-76.171875,0.0,1722283806.3495271
-45.41015625,-70.3125,-43.9453125,-71.77734375,0.0,1722283806.3533952
-58.10546875,-78.125,-52.734375,-88.37890625,0.0,1722283806.357263
-83.49609375,-89.35546875,-60.546875,-83.984375,0.0,1722283806.3611312
-65.91796875,-76.171875,-47.8515625,-63.96484375,0.0,1722283806.3649993
-65.4296875,-82.03125,-46.38671875,-81.54296875,0.0,1722283806.3688672
-64.453125,-95.21484375,-57.6171875,-84.9609375,0.0,1722283806.3731353
-61.03515625,-88.37890625,-56.640625,-72.265625,0.0,1722283806.3770034
-62.5,-81.0546875,-48.33984375,-85.44921875,0.0,1722283806.3808718
-55.6640625,-82.51953125,-46.38671875,-86.42578125,0.0,1722283806.3847399
-50.29296875,-85.9375,-48.33984375,-83.49609375,0.0,1722283806.3886082
-64.453125,-87.890625,-50.29296875,-82.51953125,0.0,1722283806.3924763
-68.84765625,-75.68359375,-43.45703125,-65.91796875,0.0,1722283806.3963447
-59.5703125,-73.73046875,-44.43359375,-78.125,0.0,1722283806.4002128
-80.56640625,-88.8671875,-57.6171875,-103.515625,0.0,1722283806.404081
-79.1015625,-80.078125,-52.24609375,-92.7734375,0.0,1722283806.4079492
-62.98828125,-73.73046875,-46.875,-80.078125,0.0,1722283806.4118176
-69.82421875,-77.1484375,-46.875,-72.75390625,0.0,1722283806.4156857
-71.2890625,-81.54296875,-47.36328125,-81.0546875,0.0,1722283806.4199235
-52.734375,-82.51953125,-42.96875,-81.54296875,0.0,1722283806.423792
-46.38671875,-75.1953125,-41.9921875,-77.1484375,0.0,1722283806.4276605
-61.5234375,-75.68359375,-46.38671875,-85.44921875,0.0,1722283806.4315288
-55.17578125,-80.56640625,-50.29296875,-82.51953125,0.0,1722283806.4353971
-43.45703125,-74.21875,-48.33984375,-72.75390625,0.0,1722283806.4392657
-47.8515625,-63.96484375,-38.57421875,-69.82421875,0.0,1722283806.443134
-70.3125,-67.87109375,-48.828125,-90.8203125,0.0,1722283806.4470024
-83.984375,-75.68359375,-61.03515625,-108.3984375,0.0,1722283806.450871
-70.3125,-72.75390625,-54.19921875,-98.14453125,0.0,1722283806.4547393
-77.63671875,-77.63671875,-51.7578125,-98.14453125,0.0,1722283806.4586077
-87.890625,-84.9609375,-54.6875,-100.5859375,0.0,1722283806.462476
-80.078125,-84.47265625,-51.7578125,-93.75,0.0,1722283806.4666805
-75.1953125,-80.56640625,-37.59765625,-80.56640625,0.0,1722283806.470549
-77.1484375,-80.56640625,-37.109375,-77.63671875,0.0,1722283806.4744177
-86.42578125,-84.9609375,-38.57421875,-92.7734375,0.0,1722283806.4782863
-87.890625,-78.61328125,-38.0859375,-100.5859375,0.0,1722283806.4821548
-64.94140625,-66.89453125,-28.3203125,-92.7734375,0.0,1722283806.4860234
-54.6875,-67.87109375,-28.80859375,-95.21484375,0.0,1722283806.489892
-79.1015625,-78.125,-46.875,-107.91015625,0.0,1722283806.4937606
-89.84375,-84.47265625,-39.0625,-100.09765625,0.0,1722283806.4976292
-86.9140625,-85.9375,-31.73828125,-92.7734375,0.0,1722283806.5014977
-88.37890625,-89.35546875,-46.38671875,-96.19140625,0.0,1722283806.5053663
-83.49609375,-86.42578125,-50.78125,-92.7734375,0.0,1722283806.509235
-75.1953125,-78.61328125,-42.48046875,-83.49609375,0.0,1722283806.513662
-77.63671875,-84.9609375,-45.8984375,-80.078125,0.0,1722283806.517531
-80.56640625,-90.8203125,-52.734375,-86.42578125,0.0,1722283806.5213997
-75.1953125,-83.0078125,-52.24609375,-91.796875,0.0,1722283806.5252688
-57.6171875,-76.66015625,-47.36328125,-77.63671875,0.0,1722283806.5291376
-46.38671875,-77.1484375,-40.0390625,-78.125,0.0,1722283806.5330064
-56.640625,-65.4296875,-41.015625,-93.26171875,0.0,1722283806.5368752
-70.80078125,-63.96484375,-48.828125,-105.95703125,0.0,1722283806.540744
-60.05859375,-62.5,-52.734375,-104.4921875,0.0,1722283806.5446131
-59.08203125,-58.59375,-44.921875,-105.46875,0.0,1722283806.548482
-76.171875,-69.3359375,-49.8046875,-119.62890625,0.0,1722283806.5523508
-69.82421875,-66.89453125,-51.26953125,-108.88671875,0.0,1722283806.5562196
-63.96484375,-66.89453125,-41.015625,-94.7265625,0.0,1722283806.5606067
-61.03515625,-71.2890625,-49.31640625,-105.95703125,0.0,1722283806.5644758
-58.10546875,-69.82421875,-55.6640625,-106.4453125,0.0,1722283806.5683448
-52.24609375,-63.96484375,-42.96875,-73.2421875,0.0,1722283806.572214
-44.921875,-65.91796875,-42.48046875,-64.453125,0.0,1722283806.5760832
-51.7578125,-66.40625,-48.33984375,-79.58984375,0.0,1722283806.5799522
-61.5234375,-72.265625,-49.8046875,-90.8203125,0.0,1722283806.5838213
-68.359375,-78.61328125,-51.7578125,-93.26171875,0.0,1722283806.5876906
-53.22265625,-62.01171875,-38.0859375,-72.265625,0.0,1722283806.5915596
-53.7109375,-62.98828125,-36.1328125,-74.21875,0.0,1722283806.5954287
-71.2890625,-80.56640625,-61.03515625,-100.09765625,0.0,1722283806.5992978
-48.33984375,-73.73046875,-55.6640625,-74.70703125,0.0,1722283806.603167
-56.640625,-71.77734375,-49.31640625,-72.75390625,0.0,1722283806.6075459
-70.80078125,-75.68359375,-50.78125,-94.23828125,0.0,1722283806.6114151
-61.03515625,-73.2421875,-44.43359375,-98.6328125,0.0,1722283806.6152847
-57.12890625,-64.453125,-40.52734375,-93.75,0.0,1722283806.619154
-61.5234375,-60.05859375,-38.0859375,-73.73046875,0.0,1722283806.6230233
-59.5703125,-68.84765625,-43.9453125,-66.40625,0.0,1722283806.6268928
-55.6640625,-68.359375,-47.8515625,-68.359375,0.0,1722283806.630762
-50.29296875,-65.4296875,-46.38671875,-68.84765625,0.0,1722283806.6346314
-45.8984375,-68.84765625,-46.875,-75.68359375,0.0,1722283806.638501
-67.87109375,-80.56640625,-58.10546875,-98.14453125,0.0,1722283806.6423702
-74.70703125,-78.61328125,-61.5234375,-107.91015625,0.0,1722283806.6462395
-57.6171875,-64.453125,-48.33984375,-80.56640625,0.0,1722283806.650109
-50.78125,-63.96484375,-41.9921875,-63.4765625,0.0,1722283806.6544406
-61.03515625,-72.75390625,-50.29296875,-75.68359375,0.0,1722283806.6583102
-64.94140625,-76.66015625,-58.59375,-84.9609375,0.0,1722283806.6621797
-53.22265625,-69.82421875,-50.78125,-82.51953125,0.0,1722283806.6660495
-51.26953125,-69.3359375,-47.8515625,-80.56640625,0.0,1722283806.669919
-50.29296875,-73.2421875,-52.734375,-83.984375,0.0,1722283806.6737885
-54.19921875,-74.21875,-50.29296875,-78.61328125,0.0,1722283806.677658
-47.8515625,-60.546875,-32.71484375,-57.12890625,0.0,1722283806.6815279
-44.921875,-61.5234375,-36.1328125,-68.84765625,0.0,1722283806.6853974
-69.82421875,-85.9375,-54.19921875,-86.9140625,0.0,1722283806.689267
-70.80078125,-77.1484375,-47.8515625,-70.3125,0.0,1722283806.6931367
-55.17578125,-65.91796875,-40.52734375,-70.3125,0.0,1722283806.6970062
-62.01171875,-62.98828125,-34.66796875,-77.63671875,0.0,1722283806.7013128
-69.3359375,-63.96484375,-35.64453125,-72.75390625,0.0,1722283806.7051826
-58.10546875,-67.87109375,-36.1328125,-69.82421875,0.0,1722283806.7090523
-50.78125,-63.96484375,-37.59765625,-68.84765625,0.0,1722283806.712922
-46.875,-57.12890625,-35.15625,-71.77734375,0.0,1722283806.716792
-43.45703125,-61.5234375,-31.25,-75.68359375,0.0,1722283806.7206619
-43.9453125,-71.2890625,-39.55078125,-85.9375,0.0,1722283806.7245317
-33.69140625,-54.19921875,-37.109375,-71.77734375,0.0,1722283806.7284014
-45.41015625,-61.03515625,-48.33984375,-79.1015625,0.0,1722283806.7322712
-54.19921875,-74.70703125,-54.6875,-94.7265625,0.0,1722283806.7361412
-39.0625,-65.4296875,-37.59765625,-77.63671875,0.0,1722283806.740011
-47.8515625,-64.453125,-32.2265625,-70.3125,0.0,1722283806.7438807
-54.6875,-67.87109375,-41.9921875,-79.1015625,0.0,1722283806.7481332
-46.875,-65.4296875,-50.29296875,-88.8671875,0.0,1722283806.7520032
-38.0859375,-59.08203125,-44.43359375,-74.21875,0.0,1722283806.7558732
-40.0390625,-57.6171875,-41.50390625,-76.171875,0.0,1722283806.7597432
-49.8046875,-62.98828125,-47.36328125,-92.28515625,0.0,1722283806.7636132
-50.29296875,-70.3125,-40.0390625,-75.1953125,0.0,1722283806.767483
-41.9921875,-68.359375,-30.76171875,-64.453125,0.0,1722283806.771353
-55.17578125,-66.89453125,-33.69140625,-76.171875,0.0,1722283806.775223
-71.77734375,-72.265625,-44.43359375,-83.984375,0.0,1722283806.779093
-54.6875,-61.03515625,-30.2734375,-68.84765625,0.0,1722283806.782963
-50.29296875,-62.5,-27.83203125,-56.15234375,0.0,1722283806.786833
-59.5703125,-70.80078125,-42.96875,-62.01171875,0.0,1722283806.790703
-58.10546875,-69.82421875,-40.0390625,-62.98828125,0.0,1722283806.7949238
-45.8984375,-66.40625,-35.15625,-52.24609375,0.0,1722283806.7987938
-47.8515625,-67.87109375,-38.57421875,-62.01171875,0.0,1722283806.802664
-67.3828125,-74.70703125,-47.36328125,-83.0078125,0.0,1722283806.8065343
-66.89453125,-73.2421875,-42.96875,-80.078125,0.0,1722283806.8104043
-48.33984375,-70.3125,-36.62109375,-74.21875,0.0,1722283806.8142745
-45.8984375,-67.87109375,-30.76171875,-70.3125,0.0,1722283806.8181448
-61.5234375,-68.84765625,-41.50390625,-65.91796875,0.0,1722283806.8220148
-69.82421875,-71.2890625,-62.98828125,-83.49609375,0.0,1722283806.825885
-59.5703125,-63.4765625,-53.7109375,-83.984375,0.0,1722283806.8297553
-52.24609375,-70.80078125,-47.8515625,-83.49609375,0.0,1722283806.8336253
-57.6171875,-72.75390625,-54.19921875,-83.49609375,0.0,1722283806.8374956
-62.5,-67.3828125,-51.26953125,-72.75390625,0.0,1722283806.841683
-62.5,-69.82421875,-41.9921875,-72.265625,0.0,1722283806.8455532
-56.640625,-72.75390625,-40.0390625,-71.2890625,0.0,1722283806.8494236
-51.7578125,-76.66015625,-49.8046875,-80.078125,0.0,1722283806.853294
-57.12890625,-71.2890625,-50.29296875,-79.58984375,0.0,1722283806.8571641
-54.19921875,-62.5,-29.296875,-48.828125,0.0,1722283806.8610346
-58.59375,-73.73046875,-29.78515625,-58.59375,0.0,1722283806.8649049
-74.70703125,-85.44921875,-57.6171875,-89.35546875,0.0,1722283806.8687751
-57.12890625,-72.75390625,-53.7109375,-83.984375,0.0,1722283806.8726456
-53.22265625,-69.3359375,-46.38671875,-69.82421875,0.0,1722283806.8765159
-75.68359375,-73.2421875,-44.43359375,-69.3359375,0.0,1722283806.880386
-84.9609375,-71.2890625,-35.15625,-77.1484375,0.0,1722283806.8842566
-62.5,-68.359375,-29.296875,-64.94140625,0.0,1722283806.8886535
-68.84765625,-74.21875,-33.203125,-60.546875,0.0,1722283806.892524
-78.61328125,-81.54296875,-36.62109375,-74.70703125,0.0,1722283806.8963947
-65.91796875,-83.49609375,-43.45703125,-84.9609375,0.0,1722283806.9002652
-57.6171875,-77.63671875,-46.875,-73.73046875,0.0,1722283806.904136
-56.640625,-66.89453125,-41.9921875,-73.2421875,0.0,1722283806.9080064
-64.94140625,-62.01171875,-35.64453125,-71.2890625,0.0,1722283806.911877
-72.265625,-67.3828125,-33.203125,-71.2890625,0.0,1722283806.9157476
-57.12890625,-68.84765625,-36.62109375,-74.21875,0.0,1722283806.9196181
-37.59765625,-61.5234375,-30.2734375,-60.05859375,0.0,1722283806.9234889
-51.26953125,-72.265625,-38.0859375,-63.4765625,0.0,1722283806.9273593
-62.01171875,-72.265625,-40.52734375,-64.453125,0.0,1722283806.9312298
-49.31640625,-60.05859375,-32.71484375,-62.98828125,0.0,1722283806.935593
-51.26953125,-62.5,-44.43359375,-74.21875,0.0,1722283806.9394639
-68.84765625,-76.171875,-52.24609375,-77.63671875,0.0,1722283806.9433346
-61.5234375,-75.68359375,-42.96875,-61.03515625,0.0,1722283806.9472053
-53.7109375,-65.91796875,-37.59765625,-59.08203125,0.0,1722283806.9510763
-55.6640625,-66.40625,-31.73828125,-59.5703125,0.0,1722283806.954947
-45.8984375,-68.84765625,-36.62109375,-65.4296875,0.0,1722283806.958818
-55.17578125,-69.82421875,-41.50390625,-69.82421875,0.0,1722283806.9626887
-51.7578125,-56.15234375,-22.4609375,-40.52734375,0.0,1722283806.9665594
-47.36328125,-55.17578125,-29.296875,-43.45703125,0.0,1722283806.9704304
-69.82421875,-69.82421875,-45.8984375,-74.70703125,0.0,1722283806.974301
-65.91796875,-69.3359375,-31.25,-81.54296875,0.0,1722283806.9781718
-49.8046875,-74.21875,-37.59765625,-85.9375,0.0,1722283806.9825013
-51.26953125,-70.80078125,-47.8515625,-83.49609375,0.0,1722283806.9863722
-75.68359375,-68.84765625,-49.8046875,-82.51953125,0.0,1722283806.9902434
-87.40234375,-74.21875,-47.36328125,-79.58984375,0.0,1722283806.9941144
-75.1953125,-71.77734375,-45.8984375,-68.359375,0.0,1722283806.9979854
-64.453125,-67.3828125,-43.45703125,-56.15234375,0.0,1722283807.0018566
-62.01171875,-67.3828125,-42.48046875,-70.80078125,0.0,1722283807.0057275
-62.01171875,-70.80078125,-46.875,-91.796875,0.0,1722283807.0095985
-58.59375,-74.70703125,-41.015625,-68.84765625,0.0,1722283807.0134695
-54.6875,-75.68359375,-43.9453125,-72.265625,0.0,1722283807.0173407
-55.17578125,-70.3125,-46.38671875,-85.9375,0.0,1722283807.0212116
-52.24609375,-62.98828125,-38.57421875,-84.47265625,0.0,1722283807.0250826
-51.7578125,-57.12890625,-36.62109375,-77.1484375,0.0,1722283807.0294158
-61.5234375,-57.6171875,-37.109375,-83.49609375,0.0,1722283807.033287
-63.4765625,-63.4765625,-41.015625,-81.54296875,0.0,1722283807.0371583
-53.22265625,-59.5703125,-39.55078125,-75.68359375,0.0,1722283807.0410295
-58.10546875,-59.08203125,-49.31640625,-102.05078125,0.0,1722283807.0449007
-71.2890625,-66.40625,-54.19921875,-100.5859375,0.0,1722283807.048772
-72.265625,-67.87109375,-46.38671875,-88.8671875,0.0,1722283807.0526433
-72.265625,-62.5,-39.0625,-71.77734375,0.0,1722283807.0565145
-85.44921875,-66.89453125,-45.41015625,-69.3359375,0.0,1722283807.0603857
-102.5390625,-75.1953125,-59.5703125,-96.19140625,0.0,1722283807.064257
-82.51953125,-66.40625,-41.015625,-83.984375,0.0,1722283807.0681283
-81.54296875,-64.453125,-43.45703125,-85.9375,0.0,1722283807.0719995
-94.7265625,-74.70703125,-53.22265625,-104.00390625,0.0,1722283807.0762963
-94.23828125,-76.171875,-48.828125,-91.30859375,0.0,1722283807.0801678
-80.56640625,-62.98828125,-44.43359375,-81.0546875,0.0,1722283807.0840392
-78.61328125,-68.359375,-43.45703125,-92.28515625,0.0,1722283807.0879107
-83.49609375,-75.1953125,-42.48046875,-93.75,0.0,1722283807.091782
-81.0546875,-68.359375,-39.0625,-90.33203125,0.0,1722283807.0956535
-85.9375,-70.3125,-39.55078125,-96.19140625,0.0,1722283807.099525
-72.265625,-71.77734375,-37.109375,-78.61328125,0.0,1722283807.1033964
-78.61328125,-75.68359375,-56.15234375,-87.890625,0.0,1722283807.1072679
-93.75,-75.1953125,-62.5,-105.95703125,0.0,1722283807.1111393
-80.078125,-65.91796875,-47.36328125,-88.37890625,0.0,1722283807.1150107
-64.453125,-62.98828125,-42.96875,-84.47265625,0.0,1722283807.1188822
-57.12890625,-59.08203125,-39.55078125,-83.984375,0.0,1722283807.1231265
-63.96484375,-60.05859375,-46.875,-76.171875,0.0,1722283807.1269982
-56.15234375,-56.15234375,-42.48046875,-73.73046875,0.0,1722283807.1308699
-54.6875,-53.22265625,-36.62109375,-78.125,0.0,1722283807.1347415
-67.87109375,-64.453125,-47.8515625,-97.16796875,0.0,1722283807.138613
-68.84765625,-69.82421875,-41.9921875,-81.54296875,0.0,1722283807.1424847
-60.05859375,-64.453125,-32.71484375,-68.84765625,0.0,1722283807.1463563
-57.12890625,-62.5,-42.96875,-86.9140625,0.0,1722283807.150228
-80.078125,-72.265625,-56.640625,-94.7265625,0.0,1722283807.1540995
-75.68359375,-69.3359375,-41.50390625,-90.33203125,0.0,1722283807.1579711
-60.546875,-69.3359375,-39.55078125,-93.26171875,0.0,1722283807.1618428
-57.6171875,-71.77734375,-45.41015625,-94.23828125,0.0,1722283807.1657145
-63.96484375,-75.1953125,-49.8046875,-95.703125,0.0,1722283807.1699235
-73.73046875,-71.77734375,-50.78125,-94.7265625,0.0,1722283807.1737955
-85.44921875,-63.4765625,-39.0625,-86.42578125,0.0,1722283807.1776671
-91.796875,-70.80078125,-39.0625,-79.1015625,0.0,1722283807.1815388
-89.35546875,-82.51953125,-42.48046875,-82.03125,0.0,1722283807.1854107
-91.30859375,-76.171875,-36.62109375,-100.09765625,0.0,1722283807.1892824
-83.984375,-62.98828125,-32.2265625,-103.515625,0.0,1722283807.1931543
-84.47265625,-71.2890625,-40.0390625,-100.09765625,0.0,1722283807.197026
-98.6328125,-74.21875,-55.17578125,-110.3515625,0.0,1722283807.200898
-89.35546875,-64.94140625,-53.22265625,-101.07421875,0.0,1722283807.2047696
-78.61328125,-67.3828125,-49.8046875,-88.8671875,0.0,1722283807.2086413
-83.49609375,-72.265625,-50.78125,-86.9140625,0.0,1722283807.2125132
-80.56640625,-70.3125,-46.875,-74.21875,0.0,1722283807.216693
-55.17578125,-62.5,-38.57421875,-62.5,0.0,1722283807.2205648
-49.8046875,-62.01171875,-42.96875,-83.0078125,0.0,1722283807.2244368
-64.453125,-64.94140625,-43.45703125,-102.5390625,0.0,1722283807.2283087
-61.5234375,-61.03515625,-32.2265625,-89.84375,0.0,1722283807.2321806
-48.33984375,-51.7578125,-24.4140625,-67.3828125,0.0,1722283807.2360525
-48.828125,-54.19921875,-29.296875,-68.359375,0.0,1722283807.2399244
-58.59375,-64.453125,-41.50390625,-87.40234375,0.0,1722283807.2437963
-60.05859375,-58.59375,-42.96875,-84.47265625,0.0,1722283807.2476683
-43.9453125,-48.33984375,-27.34375,-60.05859375,0.0,1722283807.2515402
-41.015625,-53.7109375,-32.2265625,-57.12890625,0.0,1722283807.255412
-66.89453125,-67.3828125,-47.8515625,-74.21875,0.0,1722283807.259284
-56.15234375,-68.359375,-43.45703125,-78.61328125,0.0,1722283807.2636743
-45.41015625,-64.453125,-43.9453125,-58.59375,0.0,1722283807.2675464
-56.15234375,-58.10546875,-44.43359375,-59.5703125,0.0,1722283807.2714186
-62.98828125,-60.05859375,-39.55078125,-72.75390625,0.0,1722283807.2752907
-57.6171875,-65.91796875,-28.80859375,-52.734375,0.0,1722283807.279163
-52.24609375,-58.59375,-29.296875,-46.875,0.0,1722283807.283035
-58.10546875,-60.05859375,-42.96875,-72.75390625,0.0,1722283807.2869072
-63.4765625,-66.40625,-45.8984375,-90.8203125,0.0,1722283807.2907794
-62.98828125,-66.40625,-49.8046875,-80.56640625,0.0,1722283807.2946515
-59.08203125,-67.3828125,-52.24609375,-80.56640625,0.0,1722283807.2985237
-74.70703125,-73.73046875,-52.734375,-96.6796875,0.0,1722283807.3023958
-72.75390625,-72.265625,-52.24609375,-82.51953125,0.0,1722283807.306268
-60.05859375,-71.2890625,-43.45703125,-60.546875,0.0,1722283807.31062
-56.15234375,-67.3828125,-44.43359375,-86.9140625,0.0,1722283807.3144925
-62.01171875,-65.4296875,-52.734375,-111.81640625,0.0,1722283807.3183646
-58.59375,-68.84765625,-47.36328125,-106.93359375,0.0,1722283807.322237
-41.50390625,-64.94140625,-39.0625,-84.9609375,0.0,1722283807.3261094
-43.9453125,-65.4296875,-40.52734375,-67.3828125,0.0,1722283807.3299818
-56.15234375,-68.84765625,-47.36328125,-86.9140625,0.0,1722283807.3338542
-58.59375,-76.66015625,-58.10546875,-92.28515625,0.0,1722283807.3377266
-37.59765625,-63.96484375,-39.0625,-63.96484375,0.0,1722283807.341599
-29.296875,-48.828125,-24.90234375,-58.10546875,0.0,1722283807.3454714
-42.48046875,-64.453125,-41.9921875,-72.265625,0.0,1722283807.3493438
-37.109375,-71.77734375,-39.0625,-60.546875,0.0,1722283807.3532162
-44.43359375,-71.2890625,-38.0859375,-58.10546875,0.0,1722283807.3575506
-49.8046875,-72.75390625,-45.8984375,-73.2421875,0.0,1722283807.3614233
-53.22265625,-70.80078125,-38.57421875,-81.54296875,0.0,1722283807.365296
-53.22265625,-65.91796875,-34.1796875,-68.359375,0.0,1722283807.3691683
